# Region type : patch inlet
# Faces       : 460
# Area        : 1.000000e-04
# Scale factor: 1.000000e+00
# Time        	areaAverage(T)
0.00915751    	2.931500e+02
0.00995707    	2.931500e+02
0.0108546     	2.931500e+02
0.0118742     	2.931500e+02
0.0130391     	2.931500e+02
0.0143761     	2.931500e+02
0.0159173     	2.931500e+02
0.0177011     	2.931500e+02
0.0197762     	2.931500e+02
0.0222032     	2.931500e+02
0.0250607     	2.931500e+02
0.028452      	2.931500e+02
0.032517      	2.931500e+02
0.0373966     	2.931500e+02
0.0432557     	2.931500e+02
0.0502865     	2.931500e+02
0.0587187     	2.931500e+02
0.0678862     	2.931500e+02
0.0770537     	2.931500e+02
0.0862212     	2.931500e+02
0.0953887     	2.931500e+02
0.104556      	2.931500e+02
0.113724      	2.931500e+02
0.122891      	2.931500e+02
0.132059      	2.931500e+02
0.141226      	2.931500e+02
0.150394      	2.931500e+02
0.159561      	2.931500e+02
0.168729      	2.931500e+02
0.177896      	2.931500e+02
0.187064      	2.931500e+02
0.196231      	2.931500e+02
0.205399      	2.931500e+02
0.214566      	2.931500e+02
0.223734      	2.931500e+02
0.232901      	2.931500e+02
0.242069      	2.931500e+02
0.251236      	2.931500e+02
0.260404      	2.931500e+02
0.269571      	2.931500e+02
0.278739      	2.931500e+02
0.287906      	2.931500e+02
0.297074      	2.931500e+02
0.306241      	2.931500e+02
0.315409      	2.931500e+02
0.324576      	2.931500e+02
0.333744      	2.931500e+02
0.342911      	2.931500e+02
0.352079      	2.931500e+02
0.361246      	2.931500e+02
0.370414      	2.931500e+02
0.379581      	2.931500e+02
0.388749      	2.931500e+02
0.397916      	2.931500e+02
0.407084      	2.931500e+02
0.416251      	2.931500e+02
0.425419      	2.931500e+02
0.434586      	2.931500e+02
0.443754      	2.931500e+02
0.452921      	2.931500e+02
0.462089      	2.931500e+02
0.471256      	2.931500e+02
0.480424      	2.931500e+02
0.489591      	2.931500e+02
0.498759      	2.931500e+02
0.507926      	2.931500e+02
0.517094      	2.931500e+02
0.526261      	2.931500e+02
0.535429      	2.931500e+02
0.544596      	2.931500e+02
0.553764      	2.931500e+02
0.562931      	2.931500e+02
0.572099      	2.931500e+02
0.581266      	2.931500e+02
0.590434      	2.931500e+02
0.599601      	2.931500e+02
0.608769      	2.931500e+02
0.617936      	2.931500e+02
0.627104      	2.931500e+02
0.636271      	2.931500e+02
0.645439      	2.931500e+02
0.654606      	2.931500e+02
0.663774      	2.931500e+02
0.672941      	2.931500e+02
0.682109      	2.931500e+02
0.691276      	2.931500e+02
0.700444      	2.931500e+02
0.709611      	2.931500e+02
0.718779      	2.931500e+02
0.727946      	2.931500e+02
0.737114      	2.931500e+02
0.746281      	2.931500e+02
0.755449      	2.931500e+02
0.764616      	2.931500e+02
0.773784      	2.931500e+02
0.782951      	2.931500e+02
0.792119      	2.931500e+02
0.801286      	2.931500e+02
0.810454      	2.931500e+02
0.819621      	2.931500e+02
0.828789      	2.931500e+02
0.837956      	2.931500e+02
0.847124      	2.931500e+02
0.856291      	2.931500e+02
0.865459      	2.931500e+02
0.874626      	2.931500e+02
0.883794      	2.931500e+02
0.892961      	2.931500e+02
0.902129      	2.931500e+02
0.911296      	2.931500e+02
0.920464      	2.931500e+02
0.929631      	2.931500e+02
0.938799      	2.931500e+02
0.947966      	2.931500e+02
0.957134      	2.931500e+02
0.966301      	2.931500e+02
0.975469      	2.931500e+02
0.984636      	2.931500e+02
0.993804      	2.931500e+02
1.00297       	2.931500e+02
1.01214       	2.931500e+02
1.02131       	2.931500e+02
1.03047       	2.931500e+02
1.03964       	2.931500e+02
1.04881       	2.931500e+02
1.05798       	2.931500e+02
1.06714       	2.931500e+02
1.07631       	2.931500e+02
1.08548       	2.931500e+02
1.09465       	2.931500e+02
1.10381       	2.931500e+02
1.11298       	2.931500e+02
1.12215       	2.931500e+02
1.13132       	2.931500e+02
1.14048       	2.931500e+02
1.14965       	2.931500e+02
1.15882       	2.931500e+02
1.16799       	2.931500e+02
1.17715       	2.931500e+02
1.18632       	2.931500e+02
1.19549       	2.931500e+02
1.20466       	2.931500e+02
1.21382       	2.931500e+02
1.22299       	2.931500e+02
1.23216       	2.931500e+02
1.24133       	2.931500e+02
1.25049       	2.931500e+02
1.25966       	2.931500e+02
1.26883       	2.931500e+02
1.278         	2.931500e+02
1.28716       	2.931500e+02
1.29633       	2.931500e+02
1.3055        	2.931500e+02
1.31467       	2.931500e+02
1.32383       	2.931500e+02
1.333         	2.931500e+02
1.34217       	2.931500e+02
1.35134       	2.931500e+02
1.3605        	2.931500e+02
1.36967       	2.931500e+02
1.37884       	2.931500e+02
1.38801       	2.931500e+02
1.39717       	2.931500e+02
1.40634       	2.931500e+02
1.41551       	2.931500e+02
1.42468       	2.931500e+02
1.43384       	2.931500e+02
1.44301       	2.931500e+02
1.45218       	2.931500e+02
1.46135       	2.931500e+02
1.47051       	2.931500e+02
1.47968       	2.931500e+02
1.48885       	2.931500e+02
1.49802       	2.931500e+02
1.50718       	2.931500e+02
1.51635       	2.931500e+02
1.52552       	2.931500e+02
1.53469       	2.931500e+02
1.54385       	2.931500e+02
1.55302       	2.931500e+02
1.56219       	2.931500e+02
1.57136       	2.931500e+02
1.58052       	2.931500e+02
1.58969       	2.931500e+02
1.59886       	2.931500e+02
1.60803       	2.931500e+02
1.61719       	2.931500e+02
1.62636       	2.931500e+02
1.63553       	2.931500e+02
1.6447        	2.931500e+02
1.65386       	2.931500e+02
1.66303       	2.931500e+02
1.6722        	2.931500e+02
1.68137       	2.931500e+02
1.69053       	2.931500e+02
1.6997        	2.931500e+02
1.70887       	2.931500e+02
1.71804       	2.931500e+02
1.7272        	2.931500e+02
1.73637       	2.931500e+02
1.74554       	2.931500e+02
1.75471       	2.931500e+02
1.76387       	2.931500e+02
1.77304       	2.931500e+02
1.78221       	2.931500e+02
1.79138       	2.931500e+02
1.80054       	2.931500e+02
1.80971       	2.931500e+02
1.81888       	2.931500e+02
1.82805       	2.931500e+02
1.83721       	2.931500e+02
1.84638       	2.931500e+02
1.85555       	2.931500e+02
1.86472       	2.931500e+02
1.87388       	2.931500e+02
1.88305       	2.931500e+02
1.89222       	2.931500e+02
1.90139       	2.931500e+02
1.91055       	2.931500e+02
1.91972       	2.931500e+02
1.92889       	2.931500e+02
1.93806       	2.931500e+02
1.94722       	2.931500e+02
1.95639       	2.931500e+02
1.96556       	2.931500e+02
1.97473       	2.931500e+02
1.98389       	2.931500e+02
1.99306       	2.931500e+02
2.00223       	2.931500e+02
2.0114        	2.931500e+02
2.02056       	2.931500e+02
2.02973       	2.931500e+02
2.0389        	2.931500e+02
2.04807       	2.931500e+02
2.05723       	2.931500e+02
2.0664        	2.931500e+02
2.07557       	2.931500e+02
2.08474       	2.931500e+02
2.0939        	2.931500e+02
2.10307       	2.931500e+02
2.11224       	2.931500e+02
2.12141       	2.931500e+02
2.13057       	2.931500e+02
2.13974       	2.931500e+02
2.14891       	2.931500e+02
2.15808       	2.931500e+02
2.16724       	2.931500e+02
2.17641       	2.931500e+02
2.18558       	2.931500e+02
2.19475       	2.931500e+02
2.20391       	2.931500e+02
2.21308       	2.931500e+02
2.22225       	2.931500e+02
2.23142       	2.931500e+02
2.24058       	2.931500e+02
2.24975       	2.931500e+02
2.25892       	2.931500e+02
2.26809       	2.931500e+02
2.27725       	2.931500e+02
2.28642       	2.931500e+02
2.29559       	2.931500e+02
2.30476       	2.931500e+02
2.31392       	2.931500e+02
2.32309       	2.931500e+02
2.33226       	2.931500e+02
2.34143       	2.931500e+02
2.35059       	2.931500e+02
2.35976       	2.931500e+02
2.36893       	2.931500e+02
2.3781        	2.931500e+02
2.38726       	2.931500e+02
2.39643       	2.931500e+02
2.4056        	2.931500e+02
2.41477       	2.931500e+02
2.42393       	2.931500e+02
2.4331        	2.931500e+02
2.44227       	2.931500e+02
2.45144       	2.931500e+02
2.4606        	2.931500e+02
2.46977       	2.931500e+02
2.47894       	2.931500e+02
2.48811       	2.931500e+02
2.49727       	2.931500e+02
2.50644       	2.931500e+02
2.51561       	2.931500e+02
2.52478       	2.931500e+02
2.53394       	2.931500e+02
2.54311       	2.931500e+02
2.55228       	2.931500e+02
2.56145       	2.931500e+02
2.57061       	2.931500e+02
2.57978       	2.931500e+02
2.58895       	2.931500e+02
2.59812       	2.931500e+02
2.60728       	2.931500e+02
2.61645       	2.931500e+02
2.62562       	2.931500e+02
2.63479       	2.931500e+02
2.64395       	2.931500e+02
2.65312       	2.931500e+02
2.66229       	2.931500e+02
2.67146       	2.931500e+02
2.68062       	2.931500e+02
2.68979       	2.931500e+02
2.69896       	2.931500e+02
2.70813       	2.931500e+02
2.71729       	2.931500e+02
2.72646       	2.931500e+02
2.73563       	2.931500e+02
2.7448        	2.931500e+02
2.75396       	2.931500e+02
2.76313       	2.931500e+02
2.7723        	2.931500e+02
2.78147       	2.931500e+02
2.79063       	2.931500e+02
2.7998        	2.931500e+02
2.80897       	2.931500e+02
2.81814       	2.931500e+02
2.8273        	2.931500e+02
2.83647       	2.931500e+02
2.84564       	2.931500e+02
2.85481       	2.931500e+02
2.86397       	2.931500e+02
2.87314       	2.931500e+02
2.88231       	2.931500e+02
2.89148       	2.931500e+02
2.90064       	2.931500e+02
2.90981       	2.931500e+02
2.91898       	2.931500e+02
2.92815       	2.931500e+02
2.93731       	2.931500e+02
2.94648       	2.931500e+02
2.95565       	2.931500e+02
2.96482       	2.931500e+02
2.97398       	2.931500e+02
2.98315       	2.931500e+02
2.99232       	2.931500e+02
3.00149       	2.931500e+02
3.01065       	2.931500e+02
3.01982       	2.931500e+02
3.02899       	2.931500e+02
3.03816       	2.931500e+02
3.04732       	2.931500e+02
3.05649       	2.931500e+02
3.06566       	2.931500e+02
3.07483       	2.931500e+02
3.08399       	2.931500e+02
3.09316       	2.931500e+02
3.10233       	2.931500e+02
3.1115        	2.931500e+02
3.12066       	2.931500e+02
3.12983       	2.931500e+02
3.139         	2.931500e+02
3.14817       	2.931500e+02
3.15733       	2.931500e+02
3.1665        	2.931500e+02
3.17567       	2.931500e+02
3.18484       	2.931500e+02
3.194         	2.931500e+02
3.20317       	2.931500e+02
3.21234       	2.931500e+02
3.22151       	2.931500e+02
3.23067       	2.931500e+02
3.23984       	2.931500e+02
3.24901       	2.931500e+02
3.25818       	2.931500e+02
3.26734       	2.931500e+02
3.27651       	2.931500e+02
3.28568       	2.931500e+02
3.29485       	2.931500e+02
3.30401       	2.931500e+02
3.31318       	2.931500e+02
3.32235       	2.931500e+02
3.33152       	2.931500e+02
3.34068       	2.931500e+02
3.34985       	2.931500e+02
3.35902       	2.931500e+02
3.36819       	2.931500e+02
3.37735       	2.931500e+02
3.38652       	2.931500e+02
3.39569       	2.931500e+02
3.40486       	2.931500e+02
3.41402       	2.931500e+02
3.42319       	2.931500e+02
3.43236       	2.931500e+02
3.44153       	2.931500e+02
3.45069       	2.931500e+02
3.45986       	2.931500e+02
3.46903       	2.931500e+02
3.4782        	2.931500e+02
3.48736       	2.931500e+02
3.49653       	2.931500e+02
3.5057        	2.931500e+02
3.51487       	2.931500e+02
3.52403       	2.931500e+02
3.5332        	2.931500e+02
3.54237       	2.931500e+02
3.55154       	2.931500e+02
3.5607        	2.931500e+02
3.56987       	2.931500e+02
3.57904       	2.931500e+02
3.58821       	2.931500e+02
3.59737       	2.931500e+02
3.60654       	2.931500e+02
3.61571       	2.931500e+02
3.62488       	2.931500e+02
3.63404       	2.931500e+02
3.64321       	2.931500e+02
3.65238       	2.931500e+02
3.66155       	2.931500e+02
3.67071       	2.931500e+02
3.67988       	2.931500e+02
3.68905       	2.931500e+02
3.69822       	2.931500e+02
3.70738       	2.931500e+02
3.71655       	2.931500e+02
3.72572       	2.931500e+02
3.73489       	2.931500e+02
3.74405       	2.931500e+02
3.75322       	2.931500e+02
3.76239       	2.931500e+02
3.77156       	2.931500e+02
3.78072       	2.931500e+02
3.78989       	2.931500e+02
3.79906       	2.931500e+02
3.80823       	2.931500e+02
3.81739       	2.931500e+02
3.82656       	2.931500e+02
3.83573       	2.931500e+02
3.8449        	2.931500e+02
3.85406       	2.931500e+02
3.86323       	2.931500e+02
3.8724        	2.931500e+02
3.88157       	2.931500e+02
3.89073       	2.931500e+02
3.8999        	2.931500e+02
3.90907       	2.931500e+02
3.91824       	2.931500e+02
3.9274        	2.931500e+02
3.93657       	2.931500e+02
3.94574       	2.931500e+02
3.95491       	2.931500e+02
3.96407       	2.931500e+02
3.97324       	2.931500e+02
3.98241       	2.931500e+02
3.99158       	2.931500e+02
4.00074       	2.931500e+02
4.00991       	2.931500e+02
4.01908       	2.931500e+02
4.02825       	2.931500e+02
4.03741       	2.931500e+02
4.04658       	2.931500e+02
4.05575       	2.931500e+02
4.06492       	2.931500e+02
4.07408       	2.931500e+02
4.08325       	2.931500e+02
4.09242       	2.931500e+02
4.10159       	2.931500e+02
4.11075       	2.931500e+02
4.11992       	2.931500e+02
4.12909       	2.931500e+02
4.13826       	2.931500e+02
4.14742       	2.931500e+02
4.15659       	2.931500e+02
4.16576       	2.931500e+02
4.17493       	2.931500e+02
4.18409       	2.931500e+02
4.19326       	2.931500e+02
4.20243       	2.931500e+02
4.2116        	2.931500e+02
4.22076       	2.931500e+02
4.22993       	2.931500e+02
4.2391        	2.931500e+02
4.24827       	2.931500e+02
4.25743       	2.931500e+02
4.2666        	2.931500e+02
4.27577       	2.931500e+02
4.28494       	2.931500e+02
4.2941        	2.931500e+02
4.30327       	2.931500e+02
4.31244       	2.931500e+02
4.32161       	2.931500e+02
4.33077       	2.931500e+02
4.33994       	2.931500e+02
4.34911       	2.931500e+02
4.35828       	2.931500e+02
4.36744       	2.931500e+02
4.37661       	2.931500e+02
4.38578       	2.931500e+02
4.39495       	2.931500e+02
4.40411       	2.931500e+02
4.41328       	2.931500e+02
4.42245       	2.931500e+02
4.43162       	2.931500e+02
4.44078       	2.931500e+02
4.44995       	2.931500e+02
4.45912       	2.931500e+02
4.46829       	2.931500e+02
4.47745       	2.931500e+02
4.48662       	2.931500e+02
4.49579       	2.931500e+02
4.50496       	2.931500e+02
4.51412       	2.931500e+02
4.52329       	2.931500e+02
4.53246       	2.931500e+02
4.54163       	2.931500e+02
4.55079       	2.931500e+02
4.55996       	2.931500e+02
4.56913       	2.931500e+02
4.5783        	2.931500e+02
4.58746       	2.931500e+02
4.59663       	2.931500e+02
4.6058        	2.931500e+02
4.61497       	2.931500e+02
4.62413       	2.931500e+02
4.6333        	2.931500e+02
4.64247       	2.931500e+02
4.65164       	2.931500e+02
4.6608        	2.931500e+02
4.66997       	2.931500e+02
4.67914       	2.931500e+02
4.68831       	2.931500e+02
4.69747       	2.931500e+02
4.70664       	2.931500e+02
4.71581       	2.931500e+02
4.72498       	2.931500e+02
4.73414       	2.931500e+02
4.74331       	2.931500e+02
4.75248       	2.931500e+02
4.76165       	2.931500e+02
4.77081       	2.931500e+02
4.77998       	2.931500e+02
4.78915       	2.931500e+02
4.79832       	2.931500e+02
4.80748       	2.931500e+02
4.81665       	2.931500e+02
4.82582       	2.931500e+02
4.83499       	2.931500e+02
4.84415       	2.931500e+02
4.85332       	2.931500e+02
4.86249       	2.931500e+02
4.87166       	2.931500e+02
4.88082       	2.931500e+02
4.88999       	2.931500e+02
4.89916       	2.931500e+02
4.90833       	2.931500e+02
4.91749       	2.931500e+02
4.92666       	2.931500e+02
4.93583       	2.931500e+02
4.945         	2.931500e+02
4.95416       	2.931500e+02
4.96333       	2.931500e+02
4.9725        	2.931500e+02
4.98167       	2.931500e+02
4.99083       	2.931500e+02
5             	2.931500e+02
5.00916       	2.931500e+02
5.01832       	2.931500e+02
5.02747       	2.931500e+02
5.03663       	2.931500e+02
5.04579       	2.931500e+02
5.05495       	2.931500e+02
5.0641        	2.931500e+02
5.07326       	2.931500e+02
5.08242       	2.931500e+02
5.09158       	2.931500e+02
5.10073       	2.931500e+02
5.10989       	2.931500e+02
5.11905       	2.931500e+02
5.12821       	2.931500e+02
5.13736       	2.931500e+02
5.14652       	2.931500e+02
5.15568       	2.931500e+02
5.16484       	2.931500e+02
5.17399       	2.931500e+02
5.18315       	2.931500e+02
5.19231       	2.931500e+02
5.20147       	2.931500e+02
5.21062       	2.931500e+02
5.21978       	2.931500e+02
5.22894       	2.931500e+02
5.2381        	2.931500e+02
5.24725       	2.931500e+02
5.25641       	2.931500e+02
5.26557       	2.931500e+02
5.27473       	2.931500e+02
5.28388       	2.931500e+02
5.29304       	2.931500e+02
5.3022        	2.931500e+02
5.31136       	2.931500e+02
5.32051       	2.931500e+02
5.32967       	2.931500e+02
5.33883       	2.931500e+02
5.34799       	2.931500e+02
5.35714       	2.931500e+02
5.3663        	2.931500e+02
5.37546       	2.931500e+02
5.38462       	2.931500e+02
5.39377       	2.931500e+02
5.40293       	2.931500e+02
5.41209       	2.931500e+02
5.42125       	2.931500e+02
5.4304        	2.931500e+02
5.43956       	2.931500e+02
5.44872       	2.931500e+02
5.45788       	2.931500e+02
5.46703       	2.931500e+02
5.47619       	2.931500e+02
5.48535       	2.931500e+02
5.49451       	2.931500e+02
5.50366       	2.931500e+02
5.51282       	2.931500e+02
5.52198       	2.931500e+02
5.53114       	2.931500e+02
5.54029       	2.931500e+02
5.54945       	2.931500e+02
5.55861       	2.931500e+02
5.56777       	2.931500e+02
5.57692       	2.931500e+02
5.58608       	2.931500e+02
5.59524       	2.931500e+02
5.6044        	2.931500e+02
5.61355       	2.931500e+02
5.62271       	2.931500e+02
5.63187       	2.931500e+02
5.64103       	2.931500e+02
5.65018       	2.931500e+02
5.65934       	2.931500e+02
5.6685        	2.931500e+02
5.67766       	2.931500e+02
5.68681       	2.931500e+02
5.69597       	2.931500e+02
5.70513       	2.931500e+02
5.71429       	2.931500e+02
5.72344       	2.931500e+02
5.7326        	2.931500e+02
5.74176       	2.931500e+02
5.75092       	2.931500e+02
5.76007       	2.931500e+02
5.76923       	2.931500e+02
5.77839       	2.931500e+02
5.78755       	2.931500e+02
5.7967        	2.931500e+02
5.80586       	2.931500e+02
5.81502       	2.931500e+02
5.82418       	2.931500e+02
5.83333       	2.931500e+02
5.84249       	2.931500e+02
5.85165       	2.931500e+02
5.86081       	2.931500e+02
5.86996       	2.931500e+02
5.87912       	2.931500e+02
5.88828       	2.931500e+02
5.89744       	2.931500e+02
5.90659       	2.931500e+02
5.91575       	2.931500e+02
5.92491       	2.931500e+02
5.93407       	2.931500e+02
5.94322       	2.931500e+02
5.95238       	2.931500e+02
5.96154       	2.931500e+02
5.9707        	2.931500e+02
5.97985       	2.931500e+02
5.98901       	2.931500e+02
5.99817       	2.931500e+02
6.00733       	2.931500e+02
6.01648       	2.931500e+02
6.02564       	2.931500e+02
6.0348        	2.931500e+02
6.04396       	2.931500e+02
6.05311       	2.931500e+02
6.06227       	2.931500e+02
6.07143       	2.931500e+02
6.08059       	2.931500e+02
6.08974       	2.931500e+02
6.0989        	2.931500e+02
6.10806       	2.931500e+02
6.11722       	2.931500e+02
6.12637       	2.931500e+02
6.13553       	2.931500e+02
6.14469       	2.931500e+02
6.15385       	2.931500e+02
6.163         	2.931500e+02
6.17216       	2.931500e+02
6.18132       	2.931500e+02
6.19048       	2.931500e+02
6.19963       	2.931500e+02
6.20879       	2.931500e+02
6.21795       	2.931500e+02
6.22711       	2.931500e+02
6.23626       	2.931500e+02
6.24542       	2.931500e+02
6.25458       	2.931500e+02
6.26374       	2.931500e+02
6.27289       	2.931500e+02
6.28205       	2.931500e+02
6.29121       	2.931500e+02
6.30037       	2.931500e+02
6.30952       	2.931500e+02
6.31868       	2.931500e+02
6.32784       	2.931500e+02
6.337         	2.931500e+02
6.34615       	2.931500e+02
6.35531       	2.931500e+02
6.36447       	2.931500e+02
6.37363       	2.931500e+02
6.38278       	2.931500e+02
6.39194       	2.931500e+02
6.4011        	2.931500e+02
6.41026       	2.931500e+02
6.41941       	2.931500e+02
6.42857       	2.931500e+02
6.43773       	2.931500e+02
6.44689       	2.931500e+02
6.45604       	2.931500e+02
6.4652        	2.931500e+02
6.47436       	2.931500e+02
6.48352       	2.931500e+02
6.49267       	2.931500e+02
6.50183       	2.931500e+02
6.51099       	2.931500e+02
6.52015       	2.931500e+02
6.5293        	2.931500e+02
6.53846       	2.931500e+02
6.54762       	2.931500e+02
6.55678       	2.931500e+02
6.56593       	2.931500e+02
6.57509       	2.931500e+02
6.58425       	2.931500e+02
6.59341       	2.931500e+02
6.60256       	2.931500e+02
6.61172       	2.931500e+02
6.62088       	2.931500e+02
6.63004       	2.931500e+02
6.63919       	2.931500e+02
6.64835       	2.931500e+02
6.65751       	2.931500e+02
6.66667       	2.931500e+02
6.67582       	2.931500e+02
6.68498       	2.931500e+02
6.69414       	2.931500e+02
6.7033        	2.931500e+02
6.71245       	2.931500e+02
6.72161       	2.931500e+02
6.73077       	2.931500e+02
6.73993       	2.931500e+02
6.74908       	2.931500e+02
6.75824       	2.931500e+02
6.7674        	2.931500e+02
6.77656       	2.931500e+02
6.78571       	2.931500e+02
6.79487       	2.931500e+02
6.80403       	2.931500e+02
6.81319       	2.931500e+02
6.82234       	2.931500e+02
6.8315        	2.931500e+02
6.84066       	2.931500e+02
6.84982       	2.931500e+02
6.85897       	2.931500e+02
6.86813       	2.931500e+02
6.87729       	2.931500e+02
6.88645       	2.931500e+02
6.8956        	2.931500e+02
6.90476       	2.931500e+02
6.91392       	2.931500e+02
6.92308       	2.931500e+02
6.93223       	2.931500e+02
6.94139       	2.931500e+02
6.95055       	2.931500e+02
6.95971       	2.931500e+02
6.96886       	2.931500e+02
6.97802       	2.931500e+02
6.98718       	2.931500e+02
6.99634       	2.931500e+02
7.00549       	2.931500e+02
7.01465       	2.931500e+02
7.02381       	2.931500e+02
7.03297       	2.931500e+02
7.04212       	2.931500e+02
7.05128       	2.931500e+02
7.06044       	2.931500e+02
7.0696        	2.931500e+02
7.07875       	2.931500e+02
7.08791       	2.931500e+02
7.09707       	2.931500e+02
7.10623       	2.931500e+02
7.11538       	2.931500e+02
7.12454       	2.931500e+02
7.1337        	2.931500e+02
7.14286       	2.931500e+02
7.15201       	2.931500e+02
7.16117       	2.931500e+02
7.17033       	2.931500e+02
7.17949       	2.931500e+02
7.18864       	2.931500e+02
7.1978        	2.931500e+02
7.20696       	2.931500e+02
7.21612       	2.931500e+02
7.22527       	2.931500e+02
7.23443       	2.931500e+02
7.24359       	2.931500e+02
7.25275       	2.931500e+02
7.2619        	2.931500e+02
7.27106       	2.931500e+02
7.28022       	2.931500e+02
7.28938       	2.931500e+02
7.29853       	2.931500e+02
7.30769       	2.931500e+02
7.31685       	2.931500e+02
7.32601       	2.931500e+02
7.33516       	2.931500e+02
7.34432       	2.931500e+02
7.35348       	2.931500e+02
7.36264       	2.931500e+02
7.37179       	2.931500e+02
7.38095       	2.931500e+02
7.39011       	2.931500e+02
7.39927       	2.931500e+02
7.40842       	2.931500e+02
7.41758       	2.931500e+02
7.42674       	2.931500e+02
7.4359        	2.931500e+02
7.44505       	2.931500e+02
7.45421       	2.931500e+02
7.46337       	2.931500e+02
7.47253       	2.931500e+02
7.48168       	2.931500e+02
7.49084       	2.931500e+02
7.5           	2.931500e+02
7.50916       	2.931500e+02
7.51832       	2.931500e+02
7.52747       	2.931500e+02
7.53663       	2.931500e+02
7.54579       	2.931500e+02
7.55495       	2.931500e+02
7.5641        	2.931500e+02
7.57326       	2.931500e+02
7.58242       	2.931500e+02
7.59158       	2.931500e+02
7.60073       	2.931500e+02
7.60989       	2.931500e+02
7.61905       	2.931500e+02
7.62821       	2.931500e+02
7.63736       	2.931500e+02
7.64652       	2.931500e+02
7.65568       	2.931500e+02
7.66484       	2.931500e+02
7.67399       	2.931500e+02
7.68315       	2.931500e+02
7.69231       	2.931500e+02
7.70147       	2.931500e+02
7.71062       	2.931500e+02
7.71978       	2.931500e+02
7.72894       	2.931500e+02
7.7381        	2.931500e+02
7.74725       	2.931500e+02
7.75641       	2.931500e+02
7.76557       	2.931500e+02
7.77473       	2.931500e+02
7.78388       	2.931500e+02
7.79304       	2.931500e+02
7.8022        	2.931500e+02
7.81136       	2.931500e+02
7.82051       	2.931500e+02
7.82967       	2.931500e+02
7.83883       	2.931500e+02
7.84799       	2.931500e+02
7.85714       	2.931500e+02
7.8663        	2.931500e+02
7.87546       	2.931500e+02
7.88462       	2.931500e+02
7.89377       	2.931500e+02
7.90293       	2.931500e+02
7.91209       	2.931500e+02
7.92125       	2.931500e+02
7.9304        	2.931500e+02
7.93956       	2.931500e+02
7.94872       	2.931500e+02
7.95788       	2.931500e+02
7.96703       	2.931500e+02
7.97619       	2.931500e+02
7.98535       	2.931500e+02
7.99451       	2.931500e+02
8.00366       	2.931500e+02
8.01282       	2.931500e+02
8.02198       	2.931500e+02
8.03114       	2.931500e+02
8.04029       	2.931500e+02
8.04945       	2.931500e+02
8.05861       	2.931500e+02
8.06777       	2.931500e+02
8.07692       	2.931500e+02
8.08608       	2.931500e+02
8.09524       	2.931500e+02
8.1044        	2.931500e+02
8.11355       	2.931500e+02
8.12271       	2.931500e+02
8.13187       	2.931500e+02
8.14103       	2.931500e+02
8.15018       	2.931500e+02
8.15934       	2.931500e+02
8.1685        	2.931500e+02
8.17766       	2.931500e+02
8.18681       	2.931500e+02
8.19597       	2.931500e+02
8.20513       	2.931500e+02
8.21429       	2.931500e+02
8.22344       	2.931500e+02
8.2326        	2.931500e+02
8.24176       	2.931500e+02
8.25092       	2.931500e+02
8.26007       	2.931500e+02
8.26923       	2.931500e+02
8.27839       	2.931500e+02
8.28755       	2.931500e+02
8.2967        	2.931500e+02
8.30586       	2.931500e+02
8.31502       	2.931500e+02
8.32418       	2.931500e+02
8.33333       	2.931500e+02
8.34249       	2.931500e+02
8.35165       	2.931500e+02
8.36081       	2.931500e+02
8.36996       	2.931500e+02
8.37912       	2.931500e+02
8.38828       	2.931500e+02
8.39744       	2.931500e+02
8.40659       	2.931500e+02
8.41575       	2.931500e+02
8.42491       	2.931500e+02
8.43407       	2.931500e+02
8.44322       	2.931500e+02
8.45238       	2.931500e+02
8.46154       	2.931500e+02
8.4707        	2.931500e+02
8.47985       	2.931500e+02
8.48901       	2.931500e+02
8.49817       	2.931500e+02
8.50733       	2.931500e+02
8.51648       	2.931500e+02
8.52564       	2.931500e+02
8.5348        	2.931500e+02
8.54396       	2.931500e+02
8.55311       	2.931500e+02
8.56227       	2.931500e+02
8.57143       	2.931500e+02
8.58059       	2.931500e+02
8.58974       	2.931500e+02
8.5989        	2.931500e+02
8.60806       	2.931500e+02
8.61722       	2.931500e+02
8.62637       	2.931500e+02
8.63553       	2.931500e+02
8.64469       	2.931500e+02
8.65385       	2.931500e+02
8.663         	2.931500e+02
8.67216       	2.931500e+02
8.68132       	2.931500e+02
8.69048       	2.931500e+02
8.69963       	2.931500e+02
8.70879       	2.931500e+02
8.71795       	2.931500e+02
8.72711       	2.931500e+02
8.73626       	2.931500e+02
8.74542       	2.931500e+02
8.75458       	2.931500e+02
8.76374       	2.931500e+02
8.77289       	2.931500e+02
8.78205       	2.931500e+02
8.79121       	2.931500e+02
8.80037       	2.931500e+02
8.80952       	2.931500e+02
8.81868       	2.931500e+02
8.82784       	2.931500e+02
8.837         	2.931500e+02
8.84615       	2.931500e+02
8.85531       	2.931500e+02
8.86447       	2.931500e+02
8.87363       	2.931500e+02
8.88278       	2.931500e+02
8.89194       	2.931500e+02
8.9011        	2.931500e+02
8.91026       	2.931500e+02
8.91941       	2.931500e+02
8.92857       	2.931500e+02
8.93773       	2.931500e+02
8.94689       	2.931500e+02
8.95604       	2.931500e+02
8.9652        	2.931500e+02
8.97436       	2.931500e+02
8.98352       	2.931500e+02
8.99267       	2.931500e+02
9.00183       	2.931500e+02
9.01099       	2.931500e+02
9.02015       	2.931500e+02
9.0293        	2.931500e+02
9.03846       	2.931500e+02
9.04762       	2.931500e+02
9.05678       	2.931500e+02
9.06593       	2.931500e+02
9.07509       	2.931500e+02
9.08425       	2.931500e+02
9.09341       	2.931500e+02
9.10256       	2.931500e+02
9.11172       	2.931500e+02
9.12088       	2.931500e+02
9.13004       	2.931500e+02
9.13919       	2.931500e+02
9.14835       	2.931500e+02
9.15751       	2.931500e+02
9.16667       	2.931500e+02
9.17582       	2.931500e+02
9.18498       	2.931500e+02
9.19414       	2.931500e+02
9.2033        	2.931500e+02
9.21245       	2.931500e+02
9.22161       	2.931500e+02
9.23077       	2.931500e+02
9.23993       	2.931500e+02
9.24908       	2.931500e+02
9.25824       	2.931500e+02
9.2674        	2.931500e+02
9.27656       	2.931500e+02
9.28571       	2.931500e+02
9.29487       	2.931500e+02
9.30403       	2.931500e+02
9.31319       	2.931500e+02
9.32234       	2.931500e+02
9.3315        	2.931500e+02
9.34066       	2.931500e+02
9.34982       	2.931500e+02
9.35897       	2.931500e+02
9.36813       	2.931500e+02
9.37729       	2.931500e+02
9.38645       	2.931500e+02
9.3956        	2.931500e+02
9.40476       	2.931500e+02
9.41392       	2.931500e+02
9.42308       	2.931500e+02
9.43223       	2.931500e+02
9.44139       	2.931500e+02
9.45055       	2.931500e+02
9.45971       	2.931500e+02
9.46886       	2.931500e+02
9.47802       	2.931500e+02
9.48718       	2.931500e+02
9.49634       	2.931500e+02
9.50549       	2.931500e+02
9.51465       	2.931500e+02
9.52381       	2.931500e+02
9.53297       	2.931500e+02
9.54212       	2.931500e+02
9.55128       	2.931500e+02
9.56044       	2.931500e+02
9.5696        	2.931500e+02
9.57875       	2.931500e+02
9.58791       	2.931500e+02
9.59707       	2.931500e+02
9.60623       	2.931500e+02
9.61538       	2.931500e+02
9.62454       	2.931500e+02
9.6337        	2.931500e+02
9.64286       	2.931500e+02
9.65201       	2.931500e+02
9.66117       	2.931500e+02
9.67033       	2.931500e+02
9.67949       	2.931500e+02
9.68864       	2.931500e+02
9.6978        	2.931500e+02
9.70696       	2.931500e+02
9.71612       	2.931500e+02
9.72527       	2.931500e+02
9.73443       	2.931500e+02
9.74359       	2.931500e+02
9.75275       	2.931500e+02
9.7619        	2.931500e+02
9.77106       	2.931500e+02
9.78022       	2.931500e+02
9.78938       	2.931500e+02
9.79853       	2.931500e+02
9.80769       	2.931500e+02
9.81685       	2.931500e+02
9.82601       	2.931500e+02
9.83516       	2.931500e+02
9.84432       	2.931500e+02
9.85348       	2.931500e+02
9.86264       	2.931500e+02
9.87179       	2.931500e+02
9.88095       	2.931500e+02
9.89011       	2.931500e+02
9.89927       	2.931500e+02
9.90842       	2.931500e+02
9.91758       	2.931500e+02
9.92674       	2.931500e+02
9.9359        	2.931500e+02
9.94505       	2.931500e+02
9.95421       	2.931500e+02
9.96337       	2.931500e+02
9.97253       	2.931500e+02
9.98168       	2.931500e+02
9.99084       	2.931500e+02
10            	2.931500e+02
10.0092       	2.931500e+02
10.0183       	2.931500e+02
10.0275       	2.931500e+02
10.0366       	2.931500e+02
10.0458       	2.931500e+02
10.0549       	2.931500e+02
10.0641       	2.931500e+02
10.0733       	2.931500e+02
10.0824       	2.931500e+02
10.0916       	2.931500e+02
10.1007       	2.931500e+02
10.1099       	2.931500e+02
10.119        	2.931500e+02
10.1282       	2.931500e+02
10.1374       	2.931500e+02
10.1465       	2.931500e+02
10.1557       	2.931500e+02
10.1648       	2.931500e+02
10.174        	2.931500e+02
10.1832       	2.931500e+02
10.1923       	2.931500e+02
10.2015       	2.931500e+02
10.2106       	2.931500e+02
10.2198       	2.931500e+02
10.2289       	2.931500e+02
10.2381       	2.931500e+02
10.2473       	2.931500e+02
10.2564       	2.931500e+02
10.2656       	2.931500e+02
10.2747       	2.931500e+02
10.2839       	2.931500e+02
10.293        	2.931500e+02
10.3022       	2.931500e+02
10.3114       	2.931500e+02
10.3205       	2.931500e+02
10.3297       	2.931500e+02
10.3388       	2.931500e+02
10.348        	2.931500e+02
10.3571       	2.931500e+02
10.3663       	2.931500e+02
10.3755       	2.931500e+02
10.3846       	2.931500e+02
10.3938       	2.931500e+02
10.4029       	2.931500e+02
10.4121       	2.931500e+02
10.4212       	2.931500e+02
10.4304       	2.931500e+02
10.4396       	2.931500e+02
10.4487       	2.931500e+02
10.4579       	2.931500e+02
10.467        	2.931500e+02
10.4762       	2.931500e+02
10.4853       	2.931500e+02
10.4945       	2.931500e+02
10.5037       	2.931500e+02
10.5128       	2.931500e+02
10.522        	2.931500e+02
10.5311       	2.931500e+02
10.5403       	2.931500e+02
10.5495       	2.931500e+02
10.5586       	2.931500e+02
10.5678       	2.931500e+02
10.5769       	2.931500e+02
10.5861       	2.931500e+02
10.5952       	2.931500e+02
10.6044       	2.931500e+02
10.6136       	2.931500e+02
10.6227       	2.931500e+02
10.6319       	2.931500e+02
10.641        	2.931500e+02
10.6502       	2.931500e+02
10.6593       	2.931500e+02
10.6685       	2.931500e+02
10.6777       	2.931500e+02
10.6868       	2.931500e+02
10.696        	2.931500e+02
10.7051       	2.931500e+02
10.7143       	2.931500e+02
10.7234       	2.931500e+02
10.7326       	2.931500e+02
10.7418       	2.931500e+02
10.7509       	2.931500e+02
10.7601       	2.931500e+02
10.7692       	2.931500e+02
10.7784       	2.931500e+02
10.7875       	2.931500e+02
10.7967       	2.931500e+02
10.8059       	2.931500e+02
10.815        	2.931500e+02
10.8242       	2.931500e+02
10.8333       	2.931500e+02
10.8425       	2.931500e+02
10.8516       	2.931500e+02
10.8608       	2.931500e+02
10.87         	2.931500e+02
10.8791       	2.931500e+02
10.8883       	2.931500e+02
10.8974       	2.931500e+02
10.9066       	2.931500e+02
10.9158       	2.931500e+02
10.9249       	2.931500e+02
10.9341       	2.931500e+02
10.9432       	2.931500e+02
10.9524       	2.931500e+02
10.9615       	2.931500e+02
10.9707       	2.931500e+02
10.9799       	2.931500e+02
10.989        	2.931500e+02
10.9982       	2.931500e+02
11.0073       	2.931500e+02
11.0165       	2.931500e+02
11.0256       	2.931500e+02
11.0348       	2.931500e+02
11.044        	2.931500e+02
11.0531       	2.931500e+02
11.0623       	2.931500e+02
11.0714       	2.931500e+02
11.0806       	2.931500e+02
11.0897       	2.931500e+02
11.0989       	2.931500e+02
11.1081       	2.931500e+02
11.1172       	2.931500e+02
11.1264       	2.931500e+02
11.1355       	2.931500e+02
11.1447       	2.931500e+02
11.1538       	2.931500e+02
11.163        	2.931500e+02
11.1722       	2.931500e+02
11.1813       	2.931500e+02
11.1905       	2.931500e+02
11.1996       	2.931500e+02
11.2088       	2.931500e+02
11.2179       	2.931500e+02
11.2271       	2.931500e+02
11.2363       	2.931500e+02
11.2454       	2.931500e+02
11.2546       	2.931500e+02
11.2637       	2.931500e+02
11.2729       	2.931500e+02
11.2821       	2.931500e+02
11.2912       	2.931500e+02
11.3004       	2.931500e+02
11.3095       	2.931500e+02
11.3187       	2.931500e+02
11.3278       	2.931500e+02
11.337        	2.931500e+02
11.3462       	2.931500e+02
11.3553       	2.931500e+02
11.3645       	2.931500e+02
11.3736       	2.931500e+02
11.3828       	2.931500e+02
11.3919       	2.931500e+02
11.4011       	2.931500e+02
11.4103       	2.931500e+02
11.4194       	2.931500e+02
11.4286       	2.931500e+02
11.4377       	2.931500e+02
11.4469       	2.931500e+02
11.456        	2.931500e+02
11.4652       	2.931500e+02
11.4744       	2.931500e+02
11.4835       	2.931500e+02
11.4927       	2.931500e+02
11.5018       	2.931500e+02
11.511        	2.931500e+02
11.5201       	2.931500e+02
11.5293       	2.931500e+02
11.5385       	2.931500e+02
11.5476       	2.931500e+02
11.5568       	2.931500e+02
11.5659       	2.931500e+02
11.5751       	2.931500e+02
11.5842       	2.931500e+02
11.5934       	2.931500e+02
11.6026       	2.931500e+02
11.6117       	2.931500e+02
11.6209       	2.931500e+02
11.63         	2.931500e+02
11.6392       	2.931500e+02
11.6484       	2.931500e+02
11.6575       	2.931500e+02
11.6667       	2.931500e+02
11.6758       	2.931500e+02
11.685        	2.931500e+02
11.6941       	2.931500e+02
11.7033       	2.931500e+02
11.7125       	2.931500e+02
11.7216       	2.931500e+02
11.7308       	2.931500e+02
11.7399       	2.931500e+02
11.7491       	2.931500e+02
11.7582       	2.931500e+02
11.7674       	2.931500e+02
11.7766       	2.931500e+02
11.7857       	2.931500e+02
11.7949       	2.931500e+02
11.804        	2.931500e+02
11.8132       	2.931500e+02
11.8223       	2.931500e+02
11.8315       	2.931500e+02
11.8407       	2.931500e+02
11.8498       	2.931500e+02
11.859        	2.931500e+02
11.8681       	2.931500e+02
11.8773       	2.931500e+02
11.8864       	2.931500e+02
11.8956       	2.931500e+02
11.9048       	2.931500e+02
11.9139       	2.931500e+02
11.9231       	2.931500e+02
11.9322       	2.931500e+02
11.9414       	2.931500e+02
11.9505       	2.931500e+02
11.9597       	2.931500e+02
11.9689       	2.931500e+02
11.978        	2.931500e+02
11.9872       	2.931500e+02
11.9963       	2.931500e+02
12.0055       	2.931500e+02
12.0147       	2.931500e+02
12.0238       	2.931500e+02
12.033        	2.931500e+02
12.0421       	2.931500e+02
12.0513       	2.931500e+02
12.0604       	2.931500e+02
12.0696       	2.931500e+02
12.0788       	2.931500e+02
12.0879       	2.931500e+02
12.0971       	2.931500e+02
12.1062       	2.931500e+02
12.1154       	2.931500e+02
12.1245       	2.931500e+02
12.1337       	2.931500e+02
12.1429       	2.931500e+02
12.152        	2.931500e+02
12.1612       	2.931500e+02
12.1703       	2.931500e+02
12.1795       	2.931500e+02
12.1886       	2.931500e+02
12.1978       	2.931500e+02
12.207        	2.931500e+02
12.2161       	2.931500e+02
12.2253       	2.931500e+02
12.2344       	2.931500e+02
12.2436       	2.931500e+02
12.2527       	2.931500e+02
12.2619       	2.931500e+02
12.2711       	2.931500e+02
12.2802       	2.931500e+02
12.2894       	2.931500e+02
12.2985       	2.931500e+02
12.3077       	2.931500e+02
12.3168       	2.931500e+02
12.326        	2.931500e+02
12.3352       	2.931500e+02
12.3443       	2.931500e+02
12.3535       	2.931500e+02
12.3626       	2.931500e+02
12.3718       	2.931500e+02
12.381        	2.931500e+02
12.3901       	2.931500e+02
12.3993       	2.931500e+02
12.4084       	2.931500e+02
12.4176       	2.931500e+02
12.4267       	2.931500e+02
12.4359       	2.931500e+02
12.4451       	2.931500e+02
12.4542       	2.931500e+02
12.4634       	2.931500e+02
12.4725       	2.931500e+02
12.4817       	2.931500e+02
12.4908       	2.931500e+02
12.5          	2.931500e+02
12.5092       	2.931500e+02
12.5183       	2.931500e+02
12.5275       	2.931500e+02
12.5366       	2.931500e+02
12.5458       	2.931500e+02
12.5549       	2.931500e+02
12.5641       	2.931500e+02
12.5733       	2.931500e+02
12.5824       	2.931500e+02
12.5916       	2.931500e+02
12.6007       	2.931500e+02
12.6099       	2.931500e+02
12.619        	2.931500e+02
12.6282       	2.931500e+02
12.6374       	2.931500e+02
12.6465       	2.931500e+02
12.6557       	2.931500e+02
12.6648       	2.931500e+02
12.674        	2.931500e+02
12.6832       	2.931500e+02
12.6923       	2.931500e+02
12.7015       	2.931500e+02
12.7106       	2.931500e+02
12.7198       	2.931500e+02
12.7289       	2.931500e+02
12.7381       	2.931500e+02
12.7473       	2.931500e+02
12.7564       	2.931500e+02
12.7656       	2.931500e+02
12.7747       	2.931500e+02
12.7839       	2.931500e+02
12.793        	2.931500e+02
12.8022       	2.931500e+02
12.8114       	2.931500e+02
12.8205       	2.931500e+02
12.8297       	2.931500e+02
12.8388       	2.931500e+02
12.848        	2.931500e+02
12.8571       	2.931500e+02
12.8663       	2.931500e+02
12.8755       	2.931500e+02
12.8846       	2.931500e+02
12.8938       	2.931500e+02
12.9029       	2.931500e+02
12.9121       	2.931500e+02
12.9212       	2.931500e+02
12.9304       	2.931500e+02
12.9396       	2.931500e+02
12.9487       	2.931500e+02
12.9579       	2.931500e+02
12.967        	2.931500e+02
12.9762       	2.931500e+02
12.9853       	2.931500e+02
12.9945       	2.931500e+02
13.0037       	2.931500e+02
13.0128       	2.931500e+02
13.022        	2.931500e+02
13.0311       	2.931500e+02
13.0403       	2.931500e+02
13.0495       	2.931500e+02
13.0586       	2.931500e+02
13.0678       	2.931500e+02
13.0769       	2.931500e+02
13.0861       	2.931500e+02
13.0952       	2.931500e+02
13.1044       	2.931500e+02
13.1136       	2.931500e+02
13.1227       	2.931500e+02
13.1319       	2.931500e+02
13.141        	2.931500e+02
13.1502       	2.931500e+02
13.1593       	2.931500e+02
13.1685       	2.931500e+02
13.1777       	2.931500e+02
13.1868       	2.931500e+02
13.196        	2.931500e+02
13.2051       	2.931500e+02
13.2143       	2.931500e+02
13.2234       	2.931500e+02
13.2326       	2.931500e+02
13.2418       	2.931500e+02
13.2509       	2.931500e+02
13.2601       	2.931500e+02
13.2692       	2.931500e+02
13.2784       	2.931500e+02
13.2875       	2.931500e+02
13.2967       	2.931500e+02
13.3059       	2.931500e+02
13.315        	2.931500e+02
13.3242       	2.931500e+02
13.3333       	2.931500e+02
13.3425       	2.931500e+02
13.3516       	2.931500e+02
13.3608       	2.931500e+02
13.37         	2.931500e+02
13.3791       	2.931500e+02
13.3883       	2.931500e+02
13.3974       	2.931500e+02
13.4066       	2.931500e+02
13.4158       	2.931500e+02
13.4249       	2.931500e+02
13.4341       	2.931500e+02
13.4432       	2.931500e+02
13.4524       	2.931500e+02
13.4615       	2.931500e+02
13.4707       	2.931500e+02
13.4799       	2.931500e+02
13.489        	2.931500e+02
13.4982       	2.931500e+02
13.5073       	2.931500e+02
13.5165       	2.931500e+02
13.5256       	2.931500e+02
13.5348       	2.931500e+02
13.544        	2.931500e+02
13.5531       	2.931500e+02
13.5623       	2.931500e+02
13.5714       	2.931500e+02
13.5806       	2.931500e+02
13.5897       	2.931500e+02
13.5989       	2.931500e+02
13.6081       	2.931500e+02
13.6172       	2.931500e+02
13.6264       	2.931500e+02
13.6355       	2.931500e+02
13.6447       	2.931500e+02
13.6538       	2.931500e+02
13.663        	2.931500e+02
13.6722       	2.931500e+02
13.6813       	2.931500e+02
13.6905       	2.931500e+02
13.6996       	2.931500e+02
13.7088       	2.931500e+02
13.7179       	2.931500e+02
13.7271       	2.931500e+02
13.7363       	2.931500e+02
13.7454       	2.931500e+02
13.7546       	2.931500e+02
13.7637       	2.931500e+02
13.7729       	2.931500e+02
13.7821       	2.931500e+02
13.7912       	2.931500e+02
13.8004       	2.931500e+02
13.8095       	2.931500e+02
13.8187       	2.931500e+02
13.8278       	2.931500e+02
13.837        	2.931500e+02
13.8462       	2.931500e+02
13.8553       	2.931500e+02
13.8645       	2.931500e+02
13.8736       	2.931500e+02
13.8828       	2.931500e+02
13.8919       	2.931500e+02
13.9011       	2.931500e+02
13.9103       	2.931500e+02
13.9194       	2.931500e+02
13.9286       	2.931500e+02
13.9377       	2.931500e+02
13.9469       	2.931500e+02
13.956        	2.931500e+02
13.9652       	2.931500e+02
13.9744       	2.931500e+02
13.9835       	2.931500e+02
13.9927       	2.931500e+02
14.0018       	2.931500e+02
14.011        	2.931500e+02
14.0201       	2.931500e+02
14.0293       	2.931500e+02
14.0385       	2.931500e+02
14.0476       	2.931500e+02
14.0568       	2.931500e+02
14.0659       	2.931500e+02
14.0751       	2.931500e+02
14.0842       	2.931500e+02
14.0934       	2.931500e+02
14.1026       	2.931500e+02
14.1117       	2.931500e+02
14.1209       	2.931500e+02
14.13         	2.931500e+02
14.1392       	2.931500e+02
14.1484       	2.931500e+02
14.1575       	2.931500e+02
14.1667       	2.931500e+02
14.1758       	2.931500e+02
14.185        	2.931500e+02
14.1941       	2.931500e+02
14.2033       	2.931500e+02
14.2125       	2.931500e+02
14.2216       	2.931500e+02
14.2308       	2.931500e+02
14.2399       	2.931500e+02
14.2491       	2.931500e+02
14.2582       	2.931500e+02
14.2674       	2.931500e+02
14.2766       	2.931500e+02
14.2857       	2.931500e+02
14.2949       	2.931500e+02
14.304        	2.931500e+02
14.3132       	2.931500e+02
14.3223       	2.931500e+02
14.3315       	2.931500e+02
14.3407       	2.931500e+02
14.3498       	2.931500e+02
14.359        	2.931500e+02
14.3681       	2.931500e+02
14.3773       	2.931500e+02
14.3864       	2.931500e+02
14.3956       	2.931500e+02
14.4048       	2.931500e+02
14.4139       	2.931500e+02
14.4231       	2.931500e+02
14.4322       	2.931500e+02
14.4414       	2.931500e+02
14.4505       	2.931500e+02
14.4597       	2.931500e+02
14.4689       	2.931500e+02
14.478        	2.931500e+02
14.4872       	2.931500e+02
14.4963       	2.931500e+02
14.5055       	2.931500e+02
14.5147       	2.931500e+02
14.5238       	2.931500e+02
14.533        	2.931500e+02
14.5421       	2.931500e+02
14.5513       	2.931500e+02
14.5604       	2.931500e+02
14.5696       	2.931500e+02
14.5788       	2.931500e+02
14.5879       	2.931500e+02
14.5971       	2.931500e+02
14.6062       	2.931500e+02
14.6154       	2.931500e+02
14.6245       	2.931500e+02
14.6337       	2.931500e+02
14.6429       	2.931500e+02
14.652        	2.931500e+02
14.6612       	2.931500e+02
14.6703       	2.931500e+02
14.6795       	2.931500e+02
14.6886       	2.931500e+02
14.6978       	2.931500e+02
14.707        	2.931500e+02
14.7161       	2.931500e+02
14.7253       	2.931500e+02
14.7344       	2.931500e+02
14.7436       	2.931500e+02
14.7527       	2.931500e+02
14.7619       	2.931500e+02
14.7711       	2.931500e+02
14.7802       	2.931500e+02
14.7894       	2.931500e+02
14.7985       	2.931500e+02
14.8077       	2.931500e+02
14.8168       	2.931500e+02
14.826        	2.931500e+02
14.8352       	2.931500e+02
14.8443       	2.931500e+02
14.8535       	2.931500e+02
14.8626       	2.931500e+02
14.8718       	2.931500e+02
14.881        	2.931500e+02
14.8901       	2.931500e+02
14.8993       	2.931500e+02
14.9084       	2.931500e+02
14.9176       	2.931500e+02
14.9267       	2.931500e+02
14.9359       	2.931500e+02
14.9451       	2.931500e+02
14.9542       	2.931500e+02
14.9634       	2.931500e+02
14.9725       	2.931500e+02
14.9817       	2.931500e+02
14.9908       	2.931500e+02
15            	2.931500e+02
15.0092       	2.931500e+02
15.0183       	2.931500e+02
15.0275       	2.931500e+02
15.0366       	2.931500e+02
15.0458       	2.931500e+02
15.0549       	2.931500e+02
15.0641       	2.931500e+02
15.0733       	2.931500e+02
15.0824       	2.931500e+02
15.0916       	2.931500e+02
15.1007       	2.931500e+02
15.1099       	2.931500e+02
15.119        	2.931500e+02
15.1282       	2.931500e+02
15.1374       	2.931500e+02
15.1465       	2.931500e+02
15.1557       	2.931500e+02
15.1648       	2.931500e+02
15.174        	2.931500e+02
15.1832       	2.931500e+02
15.1923       	2.931500e+02
15.2015       	2.931500e+02
15.2106       	2.931500e+02
15.2198       	2.931500e+02
15.2289       	2.931500e+02
15.2381       	2.931500e+02
15.2473       	2.931500e+02
15.2564       	2.931500e+02
15.2656       	2.931500e+02
15.2747       	2.931500e+02
15.2839       	2.931500e+02
15.293        	2.931500e+02
15.3022       	2.931500e+02
15.3114       	2.931500e+02
15.3205       	2.931500e+02
15.3297       	2.931500e+02
15.3388       	2.931500e+02
15.348        	2.931500e+02
15.3571       	2.931500e+02
15.3663       	2.931500e+02
15.3755       	2.931500e+02
15.3846       	2.931500e+02
15.3938       	2.931500e+02
15.4029       	2.931500e+02
15.4121       	2.931500e+02
15.4212       	2.931500e+02
15.4304       	2.931500e+02
15.4396       	2.931500e+02
15.4487       	2.931500e+02
15.4579       	2.931500e+02
15.467        	2.931500e+02
15.4762       	2.931500e+02
15.4853       	2.931500e+02
15.4945       	2.931500e+02
15.5037       	2.931500e+02
15.5128       	2.931500e+02
15.522        	2.931500e+02
15.5311       	2.931500e+02
15.5403       	2.931500e+02
15.5495       	2.931500e+02
15.5586       	2.931500e+02
15.5678       	2.931500e+02
15.5769       	2.931500e+02
15.5861       	2.931500e+02
15.5952       	2.931500e+02
15.6044       	2.931500e+02
15.6136       	2.931500e+02
15.6227       	2.931500e+02
15.6319       	2.931500e+02
15.641        	2.931500e+02
15.6502       	2.931500e+02
15.6593       	2.931500e+02
15.6685       	2.931500e+02
15.6777       	2.931500e+02
15.6868       	2.931500e+02
15.696        	2.931500e+02
15.7051       	2.931500e+02
15.7143       	2.931500e+02
15.7234       	2.931500e+02
15.7326       	2.931500e+02
15.7418       	2.931500e+02
15.7509       	2.931500e+02
15.7601       	2.931500e+02
15.7692       	2.931500e+02
15.7784       	2.931500e+02
15.7875       	2.931500e+02
15.7967       	2.931500e+02
15.8059       	2.931500e+02
15.815        	2.931500e+02
15.8242       	2.931500e+02
15.8333       	2.931500e+02
15.8425       	2.931500e+02
15.8516       	2.931500e+02
15.8608       	2.931500e+02
15.87         	2.931500e+02
15.8791       	2.931500e+02
15.8883       	2.931500e+02
15.8974       	2.931500e+02
15.9066       	2.931500e+02
15.9158       	2.931500e+02
15.9249       	2.931500e+02
15.9341       	2.931500e+02
15.9432       	2.931500e+02
15.9524       	2.931500e+02
15.9615       	2.931500e+02
15.9707       	2.931500e+02
15.9799       	2.931500e+02
15.989        	2.931500e+02
15.9982       	2.931500e+02
16.0073       	2.931500e+02
16.0165       	2.931500e+02
16.0256       	2.931500e+02
16.0348       	2.931500e+02
16.044        	2.931500e+02
16.0531       	2.931500e+02
16.0623       	2.931500e+02
16.0714       	2.931500e+02
16.0806       	2.931500e+02
16.0897       	2.931500e+02
16.0989       	2.931500e+02
16.1081       	2.931500e+02
16.1172       	2.931500e+02
16.1264       	2.931500e+02
16.1355       	2.931500e+02
16.1447       	2.931500e+02
16.1538       	2.931500e+02
16.163        	2.931500e+02
16.1722       	2.931500e+02
16.1813       	2.931500e+02
16.1905       	2.931500e+02
16.1996       	2.931500e+02
16.2088       	2.931500e+02
16.2179       	2.931500e+02
16.2271       	2.931500e+02
16.2363       	2.931500e+02
16.2454       	2.931500e+02
16.2546       	2.931500e+02
16.2637       	2.931500e+02
16.2729       	2.931500e+02
16.2821       	2.931500e+02
16.2912       	2.931500e+02
16.3004       	2.931500e+02
16.3095       	2.931500e+02
16.3187       	2.931500e+02
16.3278       	2.931500e+02
16.337        	2.931500e+02
16.3462       	2.931500e+02
16.3553       	2.931500e+02
16.3645       	2.931500e+02
16.3736       	2.931500e+02
16.3828       	2.931500e+02
16.3919       	2.931500e+02
16.4011       	2.931500e+02
16.4103       	2.931500e+02
16.4194       	2.931500e+02
16.4286       	2.931500e+02
16.4377       	2.931500e+02
16.4469       	2.931500e+02
16.456        	2.931500e+02
16.4652       	2.931500e+02
16.4744       	2.931500e+02
16.4835       	2.931500e+02
16.4927       	2.931500e+02
16.5018       	2.931500e+02
16.511        	2.931500e+02
16.5201       	2.931500e+02
16.5293       	2.931500e+02
16.5385       	2.931500e+02
16.5476       	2.931500e+02
16.5568       	2.931500e+02
16.5659       	2.931500e+02
16.5751       	2.931500e+02
16.5842       	2.931500e+02
16.5934       	2.931500e+02
16.6026       	2.931500e+02
16.6117       	2.931500e+02
16.6209       	2.931500e+02
16.63         	2.931500e+02
16.6392       	2.931500e+02
16.6484       	2.931500e+02
16.6575       	2.931500e+02
16.6667       	2.931500e+02
16.6758       	2.931500e+02
16.685        	2.931500e+02
16.6941       	2.931500e+02
16.7033       	2.931500e+02
16.7125       	2.931500e+02
16.7216       	2.931500e+02
16.7308       	2.931500e+02
16.7399       	2.931500e+02
16.7491       	2.931500e+02
16.7582       	2.931500e+02
16.7674       	2.931500e+02
16.7766       	2.931500e+02
16.7857       	2.931500e+02
16.7949       	2.931500e+02
16.804        	2.931500e+02
16.8132       	2.931500e+02
16.8223       	2.931500e+02
16.8315       	2.931500e+02
16.8407       	2.931500e+02
16.8498       	2.931500e+02
16.859        	2.931500e+02
16.8681       	2.931500e+02
16.8773       	2.931500e+02
16.8864       	2.931500e+02
16.8956       	2.931500e+02
16.9048       	2.931500e+02
16.9139       	2.931500e+02
16.9231       	2.931500e+02
16.9322       	2.931500e+02
16.9414       	2.931500e+02
16.9505       	2.931500e+02
16.9597       	2.931500e+02
16.9689       	2.931500e+02
16.978        	2.931500e+02
16.9872       	2.931500e+02
16.9963       	2.931500e+02
17.0055       	2.931500e+02
17.0147       	2.931500e+02
17.0238       	2.931500e+02
17.033        	2.931500e+02
17.0421       	2.931500e+02
17.0513       	2.931500e+02
17.0604       	2.931500e+02
17.0696       	2.931500e+02
17.0788       	2.931500e+02
17.0879       	2.931500e+02
17.0971       	2.931500e+02
17.1062       	2.931500e+02
17.1154       	2.931500e+02
17.1245       	2.931500e+02
17.1337       	2.931500e+02
17.1429       	2.931500e+02
17.152        	2.931500e+02
17.1612       	2.931500e+02
17.1703       	2.931500e+02
17.1795       	2.931500e+02
17.1886       	2.931500e+02
17.1978       	2.931500e+02
17.207        	2.931500e+02
17.2161       	2.931500e+02
17.2253       	2.931500e+02
17.2344       	2.931500e+02
17.2436       	2.931500e+02
17.2527       	2.931500e+02
17.2619       	2.931500e+02
17.2711       	2.931500e+02
17.2802       	2.931500e+02
17.2894       	2.931500e+02
17.2985       	2.931500e+02
17.3077       	2.931500e+02
17.3168       	2.931500e+02
17.326        	2.931500e+02
17.3352       	2.931500e+02
17.3443       	2.931500e+02
17.3535       	2.931500e+02
17.3626       	2.931500e+02
17.3718       	2.931500e+02
17.381        	2.931500e+02
17.3901       	2.931500e+02
17.3993       	2.931500e+02
17.4084       	2.931500e+02
17.4176       	2.931500e+02
17.4267       	2.931500e+02
17.4359       	2.931500e+02
17.4451       	2.931500e+02
17.4542       	2.931500e+02
17.4634       	2.931500e+02
17.4725       	2.931500e+02
17.4817       	2.931500e+02
17.4908       	2.931500e+02
17.5          	2.931500e+02
17.5092       	2.931500e+02
17.5183       	2.931500e+02
17.5275       	2.931500e+02
17.5366       	2.931500e+02
17.5458       	2.931500e+02
17.5549       	2.931500e+02
17.5641       	2.931500e+02
17.5733       	2.931500e+02
17.5824       	2.931500e+02
17.5916       	2.931500e+02
17.6007       	2.931500e+02
17.6099       	2.931500e+02
17.619        	2.931500e+02
17.6282       	2.931500e+02
17.6374       	2.931500e+02
17.6465       	2.931500e+02
17.6557       	2.931500e+02
17.6648       	2.931500e+02
17.674        	2.931500e+02
17.6832       	2.931500e+02
17.6923       	2.931500e+02
17.7015       	2.931500e+02
17.7106       	2.931500e+02
17.7198       	2.931500e+02
17.7289       	2.931500e+02
17.7381       	2.931500e+02
17.7473       	2.931500e+02
17.7564       	2.931500e+02
17.7656       	2.931500e+02
17.7747       	2.931500e+02
17.7839       	2.931500e+02
17.793        	2.931500e+02
17.8022       	2.931500e+02
17.8114       	2.931500e+02
17.8205       	2.931500e+02
17.8297       	2.931500e+02
17.8388       	2.931500e+02
17.848        	2.931500e+02
17.8571       	2.931500e+02
17.8663       	2.931500e+02
17.8755       	2.931500e+02
17.8846       	2.931500e+02
17.8938       	2.931500e+02
17.9029       	2.931500e+02
17.9121       	2.931500e+02
17.9212       	2.931500e+02
17.9304       	2.931500e+02
17.9396       	2.931500e+02
17.9487       	2.931500e+02
17.9579       	2.931500e+02
17.967        	2.931500e+02
17.9762       	2.931500e+02
17.9853       	2.931500e+02
17.9945       	2.931500e+02
18.0037       	2.931500e+02
18.0128       	2.931500e+02
18.022        	2.931500e+02
18.0311       	2.931500e+02
18.0403       	2.931500e+02
18.0495       	2.931500e+02
18.0586       	2.931500e+02
18.0678       	2.931500e+02
18.0769       	2.931500e+02
18.0861       	2.931500e+02
18.0952       	2.931500e+02
18.1044       	2.931500e+02
18.1136       	2.931500e+02
18.1227       	2.931500e+02
18.1319       	2.931500e+02
18.141        	2.931500e+02
18.1502       	2.931500e+02
18.1593       	2.931500e+02
18.1685       	2.931500e+02
18.1777       	2.931500e+02
18.1868       	2.931500e+02
18.196        	2.931500e+02
18.2051       	2.931500e+02
18.2143       	2.931500e+02
18.2234       	2.931500e+02
18.2326       	2.931500e+02
18.2418       	2.931500e+02
18.2509       	2.931500e+02
18.2601       	2.931500e+02
18.2692       	2.931500e+02
18.2784       	2.931500e+02
18.2875       	2.931500e+02
18.2967       	2.931500e+02
18.3059       	2.931500e+02
18.315        	2.931500e+02
18.3242       	2.931500e+02
18.3333       	2.931500e+02
18.3425       	2.931500e+02
18.3516       	2.931500e+02
18.3608       	2.931500e+02
18.37         	2.931500e+02
18.3791       	2.931500e+02
18.3883       	2.931500e+02
18.3974       	2.931500e+02
18.4066       	2.931500e+02
18.4158       	2.931500e+02
18.4249       	2.931500e+02
18.4341       	2.931500e+02
18.4432       	2.931500e+02
18.4524       	2.931500e+02
18.4615       	2.931500e+02
18.4707       	2.931500e+02
18.4799       	2.931500e+02
18.489        	2.931500e+02
18.4982       	2.931500e+02
18.5073       	2.931500e+02
18.5165       	2.931500e+02
18.5256       	2.931500e+02
18.5348       	2.931500e+02
18.544        	2.931500e+02
18.5531       	2.931500e+02
18.5623       	2.931500e+02
18.5714       	2.931500e+02
18.5806       	2.931500e+02
18.5897       	2.931500e+02
18.5989       	2.931500e+02
18.6081       	2.931500e+02
18.6172       	2.931500e+02
18.6264       	2.931500e+02
18.6355       	2.931500e+02
18.6447       	2.931500e+02
18.6538       	2.931500e+02
18.663        	2.931500e+02
18.6722       	2.931500e+02
18.6813       	2.931500e+02
18.6905       	2.931500e+02
18.6996       	2.931500e+02
18.7088       	2.931500e+02
18.7179       	2.931500e+02
18.7271       	2.931500e+02
18.7363       	2.931500e+02
18.7454       	2.931500e+02
18.7546       	2.931500e+02
18.7637       	2.931500e+02
18.7729       	2.931500e+02
18.7821       	2.931500e+02
18.7912       	2.931500e+02
18.8004       	2.931500e+02
18.8095       	2.931500e+02
18.8187       	2.931500e+02
18.8278       	2.931500e+02
18.837        	2.931500e+02
18.8462       	2.931500e+02
18.8553       	2.931500e+02
18.8645       	2.931500e+02
18.8736       	2.931500e+02
18.8828       	2.931500e+02
18.8919       	2.931500e+02
18.9011       	2.931500e+02
18.9103       	2.931500e+02
18.9194       	2.931500e+02
18.9286       	2.931500e+02
18.9377       	2.931500e+02
18.9469       	2.931500e+02
18.956        	2.931500e+02
18.9652       	2.931500e+02
18.9744       	2.931500e+02
18.9835       	2.931500e+02
18.9927       	2.931500e+02
19.0018       	2.931500e+02
19.011        	2.931500e+02
19.0201       	2.931500e+02
19.0293       	2.931500e+02
19.0385       	2.931500e+02
19.0476       	2.931500e+02
19.0568       	2.931500e+02
19.0659       	2.931500e+02
19.0751       	2.931500e+02
19.0842       	2.931500e+02
19.0934       	2.931500e+02
19.1026       	2.931500e+02
19.1117       	2.931500e+02
19.1209       	2.931500e+02
19.13         	2.931500e+02
19.1392       	2.931500e+02
19.1484       	2.931500e+02
19.1575       	2.931500e+02
19.1667       	2.931500e+02
19.1758       	2.931500e+02
19.185        	2.931500e+02
19.1941       	2.931500e+02
19.2033       	2.931500e+02
19.2125       	2.931500e+02
19.2216       	2.931500e+02
19.2308       	2.931500e+02
19.2399       	2.931500e+02
19.2491       	2.931500e+02
19.2582       	2.931500e+02
19.2674       	2.931500e+02
19.2766       	2.931500e+02
19.2857       	2.931500e+02
19.2949       	2.931500e+02
19.304        	2.931500e+02
19.3132       	2.931500e+02
19.3223       	2.931500e+02
19.3315       	2.931500e+02
19.3407       	2.931500e+02
19.3498       	2.931500e+02
19.359        	2.931500e+02
19.3681       	2.931500e+02
19.3773       	2.931500e+02
19.3864       	2.931500e+02
19.3956       	2.931500e+02
19.4048       	2.931500e+02
19.4139       	2.931500e+02
19.4231       	2.931500e+02
19.4322       	2.931500e+02
19.4414       	2.931500e+02
19.4505       	2.931500e+02
19.4597       	2.931500e+02
19.4689       	2.931500e+02
19.478        	2.931500e+02
19.4872       	2.931500e+02
19.4963       	2.931500e+02
19.5055       	2.931500e+02
19.5147       	2.931500e+02
19.5238       	2.931500e+02
19.533        	2.931500e+02
19.5421       	2.931500e+02
19.5513       	2.931500e+02
19.5604       	2.931500e+02
19.5696       	2.931500e+02
19.5788       	2.931500e+02
19.5879       	2.931500e+02
19.5971       	2.931500e+02
19.6062       	2.931500e+02
19.6154       	2.931500e+02
19.6245       	2.931500e+02
19.6337       	2.931500e+02
19.6429       	2.931500e+02
19.652        	2.931500e+02
19.6612       	2.931500e+02
19.6703       	2.931500e+02
19.6795       	2.931500e+02
19.6886       	2.931500e+02
19.6978       	2.931500e+02
19.707        	2.931500e+02
19.7161       	2.931500e+02
19.7253       	2.931500e+02
19.7344       	2.931500e+02
19.7436       	2.931500e+02
19.7527       	2.931500e+02
19.7619       	2.931500e+02
19.7711       	2.931500e+02
19.7802       	2.931500e+02
19.7894       	2.931500e+02
19.7985       	2.931500e+02
19.8077       	2.931500e+02
19.8168       	2.931500e+02
19.826        	2.931500e+02
19.8352       	2.931500e+02
19.8443       	2.931500e+02
19.8535       	2.931500e+02
19.8626       	2.931500e+02
19.8718       	2.931500e+02
19.881        	2.931500e+02
19.8901       	2.931500e+02
19.8993       	2.931500e+02
19.9084       	2.931500e+02
19.9176       	2.931500e+02
19.9267       	2.931500e+02
19.9359       	2.931500e+02
19.9451       	2.931500e+02
19.9542       	2.931500e+02
19.9634       	2.931500e+02
19.9725       	2.931500e+02
19.9817       	2.931500e+02
19.9908       	2.931500e+02
20            	2.931500e+02
20.0092       	2.931500e+02
20.0183       	2.931500e+02
20.0275       	2.931500e+02
20.0366       	2.931500e+02
20.0458       	2.931500e+02
20.0549       	2.931500e+02
20.0641       	2.931500e+02
20.0733       	2.931500e+02
20.0824       	2.931500e+02
20.0916       	2.931500e+02
20.1007       	2.931500e+02
20.1099       	2.931500e+02
20.119        	2.931500e+02
20.1282       	2.931500e+02
20.1374       	2.931500e+02
20.1465       	2.931500e+02
20.1557       	2.931500e+02
20.1648       	2.931500e+02
20.174        	2.931500e+02
20.1832       	2.931500e+02
20.1923       	2.931500e+02
20.2015       	2.931500e+02
20.2106       	2.931500e+02
20.2198       	2.931500e+02
20.2289       	2.931500e+02
20.2381       	2.931500e+02
20.2473       	2.931500e+02
20.2564       	2.931500e+02
20.2656       	2.931500e+02
20.2747       	2.931500e+02
20.2839       	2.931500e+02
20.293        	2.931500e+02
20.3022       	2.931500e+02
20.3114       	2.931500e+02
20.3205       	2.931500e+02
20.3297       	2.931500e+02
20.3388       	2.931500e+02
20.348        	2.931500e+02
20.3571       	2.931500e+02
20.3663       	2.931500e+02
20.3755       	2.931500e+02
20.3846       	2.931500e+02
20.3938       	2.931500e+02
20.4029       	2.931500e+02
20.4121       	2.931500e+02
20.4212       	2.931500e+02
20.4304       	2.931500e+02
20.4396       	2.931500e+02
20.4487       	2.931500e+02
20.4579       	2.931500e+02
20.467        	2.931500e+02
20.4762       	2.931500e+02
20.4853       	2.931500e+02
20.4945       	2.931500e+02
20.5037       	2.931500e+02
20.5128       	2.931500e+02
20.522        	2.931500e+02
20.5311       	2.931500e+02
20.5403       	2.931500e+02
20.5495       	2.931500e+02
20.5586       	2.931500e+02
20.5678       	2.931500e+02
20.5769       	2.931500e+02
20.5861       	2.931500e+02
20.5952       	2.931500e+02
20.6044       	2.931500e+02
20.6136       	2.931500e+02
20.6227       	2.931500e+02
20.6319       	2.931500e+02
20.641        	2.931500e+02
20.6502       	2.931500e+02
20.6593       	2.931500e+02
20.6685       	2.931500e+02
20.6777       	2.931500e+02
20.6868       	2.931500e+02
20.696        	2.931500e+02
20.7051       	2.931500e+02
20.7143       	2.931500e+02
20.7234       	2.931500e+02
20.7326       	2.931500e+02
20.7418       	2.931500e+02
20.7509       	2.931500e+02
20.7601       	2.931500e+02
20.7692       	2.931500e+02
20.7784       	2.931500e+02
20.7875       	2.931500e+02
20.7967       	2.931500e+02
20.8059       	2.931500e+02
20.815        	2.931500e+02
20.8242       	2.931500e+02
20.8333       	2.931500e+02
20.8425       	2.931500e+02
20.8516       	2.931500e+02
20.8608       	2.931500e+02
20.87         	2.931500e+02
20.8791       	2.931500e+02
20.8883       	2.931500e+02
20.8974       	2.931500e+02
20.9066       	2.931500e+02
20.9158       	2.931500e+02
20.9249       	2.931500e+02
20.9341       	2.931500e+02
20.9432       	2.931500e+02
20.9524       	2.931500e+02
20.9615       	2.931500e+02
20.9707       	2.931500e+02
20.9799       	2.931500e+02
20.989        	2.931500e+02
20.9982       	2.931500e+02
21.0073       	2.931500e+02
21.0165       	2.931500e+02
21.0256       	2.931500e+02
21.0348       	2.931500e+02
21.044        	2.931500e+02
21.0531       	2.931500e+02
21.0623       	2.931500e+02
21.0714       	2.931500e+02
21.0806       	2.931500e+02
21.0897       	2.931500e+02
21.0989       	2.931500e+02
21.1081       	2.931500e+02
21.1172       	2.931500e+02
21.1264       	2.931500e+02
21.1355       	2.931500e+02
21.1447       	2.931500e+02
21.1538       	2.931500e+02
21.163        	2.931500e+02
21.1722       	2.931500e+02
21.1813       	2.931500e+02
21.1905       	2.931500e+02
21.1996       	2.931500e+02
21.2088       	2.931500e+02
21.2179       	2.931500e+02
21.2271       	2.931500e+02
21.2363       	2.931500e+02
21.2454       	2.931500e+02
21.2546       	2.931500e+02
21.2637       	2.931500e+02
21.2729       	2.931500e+02
21.2821       	2.931500e+02
21.2912       	2.931500e+02
21.3004       	2.931500e+02
21.3095       	2.931500e+02
21.3187       	2.931500e+02
21.3278       	2.931500e+02
21.337        	2.931500e+02
21.3462       	2.931500e+02
21.3553       	2.931500e+02
21.3645       	2.931500e+02
21.3736       	2.931500e+02
21.3828       	2.931500e+02
21.3919       	2.931500e+02
21.4011       	2.931500e+02
21.4103       	2.931500e+02
21.4194       	2.931500e+02
21.4286       	2.931500e+02
21.4377       	2.931500e+02
21.4469       	2.931500e+02
21.456        	2.931500e+02
21.4652       	2.931500e+02
21.4744       	2.931500e+02
21.4835       	2.931500e+02
21.4927       	2.931500e+02
21.5018       	2.931500e+02
21.511        	2.931500e+02
21.5201       	2.931500e+02
21.5293       	2.931500e+02
21.5385       	2.931500e+02
21.5476       	2.931500e+02
21.5568       	2.931500e+02
21.5659       	2.931500e+02
21.5751       	2.931500e+02
21.5842       	2.931500e+02
21.5934       	2.931500e+02
21.6026       	2.931500e+02
21.6117       	2.931500e+02
21.6209       	2.931500e+02
21.63         	2.931500e+02
21.6392       	2.931500e+02
21.6484       	2.931500e+02
21.6575       	2.931500e+02
21.6667       	2.931500e+02
21.6758       	2.931500e+02
21.685        	2.931500e+02
21.6941       	2.931500e+02
21.7033       	2.931500e+02
21.7125       	2.931500e+02
21.7216       	2.931500e+02
21.7308       	2.931500e+02
21.7399       	2.931500e+02
21.7491       	2.931500e+02
21.7582       	2.931500e+02
21.7674       	2.931500e+02
21.7766       	2.931500e+02
21.7857       	2.931500e+02
21.7949       	2.931500e+02
21.804        	2.931500e+02
21.8132       	2.931500e+02
21.8223       	2.931500e+02
21.8315       	2.931500e+02
21.8407       	2.931500e+02
21.8498       	2.931500e+02
21.859        	2.931500e+02
21.8681       	2.931500e+02
21.8773       	2.931500e+02
21.8864       	2.931500e+02
21.8956       	2.931500e+02
21.9048       	2.931500e+02
21.9139       	2.931500e+02
21.9231       	2.931500e+02
21.9322       	2.931500e+02
21.9414       	2.931500e+02
21.9505       	2.931500e+02
21.9597       	2.931500e+02
21.9689       	2.931500e+02
21.978        	2.931500e+02
21.9872       	2.931500e+02
21.9963       	2.931500e+02
22.0055       	2.931500e+02
22.0147       	2.931500e+02
22.0238       	2.931500e+02
22.033        	2.931500e+02
22.0421       	2.931500e+02
22.0513       	2.931500e+02
22.0604       	2.931500e+02
22.0696       	2.931500e+02
22.0788       	2.931500e+02
22.0879       	2.931500e+02
22.0971       	2.931500e+02
22.1062       	2.931500e+02
22.1154       	2.931500e+02
22.1245       	2.931500e+02
22.1337       	2.931500e+02
22.1429       	2.931500e+02
22.152        	2.931500e+02
22.1612       	2.931500e+02
22.1703       	2.931500e+02
22.1795       	2.931500e+02
22.1886       	2.931500e+02
22.1978       	2.931500e+02
22.207        	2.931500e+02
22.2161       	2.931500e+02
22.2253       	2.931500e+02
22.2344       	2.931500e+02
22.2436       	2.931500e+02
22.2527       	2.931500e+02
22.2619       	2.931500e+02
22.2711       	2.931500e+02
22.2802       	2.931500e+02
22.2894       	2.931500e+02
22.2985       	2.931500e+02
22.3077       	2.931500e+02
22.3168       	2.931500e+02
22.326        	2.931500e+02
22.3352       	2.931500e+02
22.3443       	2.931500e+02
22.3535       	2.931500e+02
22.3626       	2.931500e+02
22.3718       	2.931500e+02
22.381        	2.931500e+02
22.3901       	2.931500e+02
22.3993       	2.931500e+02
22.4084       	2.931500e+02
22.4176       	2.931500e+02
22.4267       	2.931500e+02
22.4359       	2.931500e+02
22.4451       	2.931500e+02
22.4542       	2.931500e+02
22.4634       	2.931500e+02
22.4725       	2.931500e+02
22.4817       	2.931500e+02
22.4908       	2.931500e+02
22.5          	2.931500e+02
22.5092       	2.931500e+02
22.5183       	2.931500e+02
22.5275       	2.931500e+02
22.5366       	2.931500e+02
22.5458       	2.931500e+02
22.5549       	2.931500e+02
22.5641       	2.931500e+02
22.5733       	2.931500e+02
22.5824       	2.931500e+02
22.5916       	2.931500e+02
22.6007       	2.931500e+02
22.6099       	2.931500e+02
22.619        	2.931500e+02
22.6282       	2.931500e+02
22.6374       	2.931500e+02
22.6465       	2.931500e+02
22.6557       	2.931500e+02
22.6648       	2.931500e+02
22.674        	2.931500e+02
22.6832       	2.931500e+02
22.6923       	2.931500e+02
22.7015       	2.931500e+02
22.7106       	2.931500e+02
22.7198       	2.931500e+02
22.7289       	2.931500e+02
22.7381       	2.931500e+02
22.7473       	2.931500e+02
22.7564       	2.931500e+02
22.7656       	2.931500e+02
22.7747       	2.931500e+02
22.7839       	2.931500e+02
22.793        	2.931500e+02
22.8022       	2.931500e+02
22.8114       	2.931500e+02
22.8205       	2.931500e+02
22.8297       	2.931500e+02
22.8388       	2.931500e+02
22.848        	2.931500e+02
22.8571       	2.931500e+02
22.8663       	2.931500e+02
22.8755       	2.931500e+02
22.8846       	2.931500e+02
22.8938       	2.931500e+02
22.9029       	2.931500e+02
22.9121       	2.931500e+02
22.9212       	2.931500e+02
22.9304       	2.931500e+02
22.9396       	2.931500e+02
22.9487       	2.931500e+02
22.9579       	2.931500e+02
22.967        	2.931500e+02
22.9762       	2.931500e+02
22.9853       	2.931500e+02
22.9945       	2.931500e+02
23.0037       	2.931500e+02
23.0128       	2.931500e+02
23.022        	2.931500e+02
23.0311       	2.931500e+02
23.0403       	2.931500e+02
23.0495       	2.931500e+02
23.0586       	2.931500e+02
23.0678       	2.931500e+02
23.0769       	2.931500e+02
23.0861       	2.931500e+02
23.0952       	2.931500e+02
23.1044       	2.931500e+02
23.1136       	2.931500e+02
23.1227       	2.931500e+02
23.1319       	2.931500e+02
23.141        	2.931500e+02
23.1502       	2.931500e+02
23.1593       	2.931500e+02
23.1685       	2.931500e+02
23.1777       	2.931500e+02
23.1868       	2.931500e+02
23.196        	2.931500e+02
23.2051       	2.931500e+02
23.2143       	2.931500e+02
23.2234       	2.931500e+02
23.2326       	2.931500e+02
23.2418       	2.931500e+02
23.2509       	2.931500e+02
23.2601       	2.931500e+02
23.2692       	2.931500e+02
23.2784       	2.931500e+02
23.2875       	2.931500e+02
23.2967       	2.931500e+02
23.3059       	2.931500e+02
23.315        	2.931500e+02
23.3242       	2.931500e+02
23.3333       	2.931500e+02
23.3425       	2.931500e+02
23.3516       	2.931500e+02
23.3608       	2.931500e+02
23.37         	2.931500e+02
23.3791       	2.931500e+02
23.3883       	2.931500e+02
23.3974       	2.931500e+02
23.4066       	2.931500e+02
23.4158       	2.931500e+02
23.4249       	2.931500e+02
23.4341       	2.931500e+02
23.4432       	2.931500e+02
23.4524       	2.931500e+02
23.4615       	2.931500e+02
23.4707       	2.931500e+02
23.4799       	2.931500e+02
23.489        	2.931500e+02
23.4982       	2.931500e+02
23.5073       	2.931500e+02
23.5165       	2.931500e+02
23.5256       	2.931500e+02
23.5348       	2.931500e+02
23.544        	2.931500e+02
23.5531       	2.931500e+02
23.5623       	2.931500e+02
23.5714       	2.931500e+02
23.5806       	2.931500e+02
23.5897       	2.931500e+02
23.5989       	2.931500e+02
23.6081       	2.931500e+02
23.6172       	2.931500e+02
23.6264       	2.931500e+02
23.6355       	2.931500e+02
23.6447       	2.931500e+02
23.6538       	2.931500e+02
23.663        	2.931500e+02
23.6722       	2.931500e+02
23.6813       	2.931500e+02
23.6905       	2.931500e+02
23.6996       	2.931500e+02
23.7088       	2.931500e+02
23.7179       	2.931500e+02
23.7271       	2.931500e+02
23.7363       	2.931500e+02
23.7454       	2.931500e+02
23.7546       	2.931500e+02
23.7637       	2.931500e+02
23.7729       	2.931500e+02
23.7821       	2.931500e+02
23.7912       	2.931500e+02
23.8004       	2.931500e+02
23.8095       	2.931500e+02
23.8187       	2.931500e+02
23.8278       	2.931500e+02
23.837        	2.931500e+02
23.8462       	2.931500e+02
23.8553       	2.931500e+02
23.8645       	2.931500e+02
23.8736       	2.931500e+02
23.8828       	2.931500e+02
23.8919       	2.931500e+02
23.9011       	2.931500e+02
23.9103       	2.931500e+02
23.9194       	2.931500e+02
23.9286       	2.931500e+02
23.9377       	2.931500e+02
23.9469       	2.931500e+02
23.956        	2.931500e+02
23.9652       	2.931500e+02
23.9744       	2.931500e+02
23.9835       	2.931500e+02
23.9927       	2.931500e+02
24.0018       	2.931500e+02
24.011        	2.931500e+02
24.0201       	2.931500e+02
24.0293       	2.931500e+02
24.0385       	2.931500e+02
24.0476       	2.931500e+02
24.0568       	2.931500e+02
24.0659       	2.931500e+02
24.0751       	2.931500e+02
24.0842       	2.931500e+02
24.0934       	2.931500e+02
24.1026       	2.931500e+02
24.1117       	2.931500e+02
24.1209       	2.931500e+02
24.13         	2.931500e+02
24.1392       	2.931500e+02
24.1484       	2.931500e+02
24.1575       	2.931500e+02
24.1667       	2.931500e+02
24.1758       	2.931500e+02
24.185        	2.931500e+02
24.1941       	2.931500e+02
24.2033       	2.931500e+02
24.2125       	2.931500e+02
24.2216       	2.931500e+02
24.2308       	2.931500e+02
24.2399       	2.931500e+02
24.2491       	2.931500e+02
24.2582       	2.931500e+02
24.2674       	2.931500e+02
24.2766       	2.931500e+02
24.2857       	2.931500e+02
24.2949       	2.931500e+02
24.304        	2.931500e+02
24.3132       	2.931500e+02
24.3223       	2.931500e+02
24.3315       	2.931500e+02
24.3407       	2.931500e+02
24.3498       	2.931500e+02
24.359        	2.931500e+02
24.3681       	2.931500e+02
24.3773       	2.931500e+02
24.3864       	2.931500e+02
24.3956       	2.931500e+02
24.4048       	2.931500e+02
24.4139       	2.931500e+02
24.4231       	2.931500e+02
24.4322       	2.931500e+02
24.4414       	2.931500e+02
24.4505       	2.931500e+02
24.4597       	2.931500e+02
24.4689       	2.931500e+02
24.478        	2.931500e+02
24.4872       	2.931500e+02
24.4963       	2.931500e+02
24.5055       	2.931500e+02
24.5147       	2.931500e+02
24.5238       	2.931500e+02
24.533        	2.931500e+02
24.5421       	2.931500e+02
24.5513       	2.931500e+02
24.5604       	2.931500e+02
24.5696       	2.931500e+02
24.5788       	2.931500e+02
24.5879       	2.931500e+02
24.5971       	2.931500e+02
24.6062       	2.931500e+02
24.6154       	2.931500e+02
24.6245       	2.931500e+02
24.6337       	2.931500e+02
24.6429       	2.931500e+02
24.652        	2.931500e+02
24.6612       	2.931500e+02
24.6703       	2.931500e+02
24.6795       	2.931500e+02
24.6886       	2.931500e+02
24.6978       	2.931500e+02
24.707        	2.931500e+02
24.7161       	2.931500e+02
24.7253       	2.931500e+02
24.7344       	2.931500e+02
24.7436       	2.931500e+02
24.7527       	2.931500e+02
24.7619       	2.931500e+02
24.7711       	2.931500e+02
24.7802       	2.931500e+02
24.7894       	2.931500e+02
24.7985       	2.931500e+02
24.8077       	2.931500e+02
24.8168       	2.931500e+02
24.826        	2.931500e+02
24.8352       	2.931500e+02
24.8443       	2.931500e+02
24.8535       	2.931500e+02
24.8626       	2.931500e+02
24.8718       	2.931500e+02
24.881        	2.931500e+02
24.8901       	2.931500e+02
24.8993       	2.931500e+02
24.9084       	2.931500e+02
24.9176       	2.931500e+02
24.9267       	2.931500e+02
24.9359       	2.931500e+02
24.9451       	2.931500e+02
24.9542       	2.931500e+02
24.9634       	2.931500e+02
24.9725       	2.931500e+02
24.9817       	2.931500e+02
24.9908       	2.931500e+02
25            	2.931500e+02
25.0092       	2.931500e+02
25.0183       	2.931500e+02
25.0275       	2.931500e+02
25.0366       	2.931500e+02
25.0458       	2.931500e+02
25.0549       	2.931500e+02
25.0641       	2.931500e+02
25.0733       	2.931500e+02
25.0824       	2.931500e+02
25.0916       	2.931500e+02
25.1007       	2.931500e+02
25.1099       	2.931500e+02
25.119        	2.931500e+02
25.1282       	2.931500e+02
25.1374       	2.931500e+02
25.1465       	2.931500e+02
25.1557       	2.931500e+02
25.1648       	2.931500e+02
25.174        	2.931500e+02
25.1832       	2.931500e+02
25.1923       	2.931500e+02
25.2015       	2.931500e+02
25.2106       	2.931500e+02
25.2198       	2.931500e+02
25.2289       	2.931500e+02
25.2381       	2.931500e+02
25.2473       	2.931500e+02
25.2564       	2.931500e+02
25.2656       	2.931500e+02
25.2747       	2.931500e+02
25.2839       	2.931500e+02
25.293        	2.931500e+02
25.3022       	2.931500e+02
25.3114       	2.931500e+02
25.3205       	2.931500e+02
25.3297       	2.931500e+02
25.3388       	2.931500e+02
25.348        	2.931500e+02
25.3571       	2.931500e+02
25.3663       	2.931500e+02
25.3755       	2.931500e+02
25.3846       	2.931500e+02
25.3938       	2.931500e+02
25.4029       	2.931500e+02
25.4121       	2.931500e+02
25.4212       	2.931500e+02
25.4304       	2.931500e+02
25.4396       	2.931500e+02
25.4487       	2.931500e+02
25.4579       	2.931500e+02
25.467        	2.931500e+02
25.4762       	2.931500e+02
25.4853       	2.931500e+02
25.4945       	2.931500e+02
25.5037       	2.931500e+02
25.5128       	2.931500e+02
25.522        	2.931500e+02
25.5311       	2.931500e+02
25.5403       	2.931500e+02
25.5495       	2.931500e+02
25.5586       	2.931500e+02
25.5678       	2.931500e+02
25.5769       	2.931500e+02
25.5861       	2.931500e+02
25.5952       	2.931500e+02
25.6044       	2.931500e+02
25.6136       	2.931500e+02
25.6227       	2.931500e+02
25.6319       	2.931500e+02
25.641        	2.931500e+02
25.6502       	2.931500e+02
25.6593       	2.931500e+02
25.6685       	2.931500e+02
25.6777       	2.931500e+02
25.6868       	2.931500e+02
25.696        	2.931500e+02
25.7051       	2.931500e+02
25.7143       	2.931500e+02
25.7234       	2.931500e+02
25.7326       	2.931500e+02
25.7418       	2.931500e+02
25.7509       	2.931500e+02
25.7601       	2.931500e+02
25.7692       	2.931500e+02
25.7784       	2.931500e+02
25.7875       	2.931500e+02
25.7967       	2.931500e+02
25.8059       	2.931500e+02
25.815        	2.931500e+02
25.8242       	2.931500e+02
25.8333       	2.931500e+02
25.8425       	2.931500e+02
25.8516       	2.931500e+02
25.8608       	2.931500e+02
25.87         	2.931500e+02
25.8791       	2.931500e+02
25.8883       	2.931500e+02
25.8974       	2.931500e+02
25.9066       	2.931500e+02
25.9158       	2.931500e+02
25.9249       	2.931500e+02
25.9341       	2.931500e+02
25.9432       	2.931500e+02
25.9524       	2.931500e+02
25.9615       	2.931500e+02
25.9707       	2.931500e+02
25.9799       	2.931500e+02
25.989        	2.931500e+02
25.9982       	2.931500e+02
26.0073       	2.931500e+02
26.0165       	2.931500e+02
26.0256       	2.931500e+02
26.0348       	2.931500e+02
26.044        	2.931500e+02
26.0531       	2.931500e+02
26.0623       	2.931500e+02
26.0714       	2.931500e+02
26.0806       	2.931500e+02
26.0897       	2.931500e+02
26.0989       	2.931500e+02
26.1081       	2.931500e+02
26.1172       	2.931500e+02
26.1264       	2.931500e+02
26.1355       	2.931500e+02
26.1447       	2.931500e+02
26.1538       	2.931500e+02
26.163        	2.931500e+02
26.1722       	2.931500e+02
26.1813       	2.931500e+02
26.1905       	2.931500e+02
26.1996       	2.931500e+02
26.2088       	2.931500e+02
26.2179       	2.931500e+02
26.2271       	2.931500e+02
26.2363       	2.931500e+02
26.2454       	2.931500e+02
26.2546       	2.931500e+02
26.2637       	2.931500e+02
26.2729       	2.931500e+02
26.2821       	2.931500e+02
26.2912       	2.931500e+02
26.3004       	2.931500e+02
26.3095       	2.931500e+02
26.3187       	2.931500e+02
26.3278       	2.931500e+02
26.337        	2.931500e+02
26.3462       	2.931500e+02
26.3553       	2.931500e+02
26.3645       	2.931500e+02
26.3736       	2.931500e+02
26.3828       	2.931500e+02
26.3919       	2.931500e+02
26.4011       	2.931500e+02
26.4103       	2.931500e+02
26.4194       	2.931500e+02
26.4286       	2.931500e+02
26.4377       	2.931500e+02
26.4469       	2.931500e+02
26.456        	2.931500e+02
26.4652       	2.931500e+02
26.4744       	2.931500e+02
26.4835       	2.931500e+02
26.4927       	2.931500e+02
26.5018       	2.931500e+02
26.511        	2.931500e+02
26.5201       	2.931500e+02
26.5293       	2.931500e+02
26.5385       	2.931500e+02
26.5476       	2.931500e+02
26.5568       	2.931500e+02
26.5659       	2.931500e+02
26.5751       	2.931500e+02
26.5842       	2.931500e+02
26.5934       	2.931500e+02
26.6026       	2.931500e+02
26.6117       	2.931500e+02
26.6209       	2.931500e+02
26.63         	2.931500e+02
26.6392       	2.931500e+02
26.6484       	2.931500e+02
26.6575       	2.931500e+02
26.6667       	2.931500e+02
26.6758       	2.931500e+02
26.685        	2.931500e+02
26.6941       	2.931500e+02
26.7033       	2.931500e+02
26.7125       	2.931500e+02
26.7216       	2.931500e+02
26.7308       	2.931500e+02
26.7399       	2.931500e+02
26.7491       	2.931500e+02
26.7582       	2.931500e+02
26.7674       	2.931500e+02
26.7766       	2.931500e+02
26.7857       	2.931500e+02
26.7949       	2.931500e+02
26.804        	2.931500e+02
26.8132       	2.931500e+02
26.8223       	2.931500e+02
26.8315       	2.931500e+02
26.8407       	2.931500e+02
26.8498       	2.931500e+02
26.859        	2.931500e+02
26.8681       	2.931500e+02
26.8773       	2.931500e+02
26.8864       	2.931500e+02
26.8956       	2.931500e+02
26.9048       	2.931500e+02
26.9139       	2.931500e+02
26.9231       	2.931500e+02
26.9322       	2.931500e+02
26.9414       	2.931500e+02
26.9505       	2.931500e+02
26.9597       	2.931500e+02
26.9689       	2.931500e+02
26.978        	2.931500e+02
26.9872       	2.931500e+02
26.9963       	2.931500e+02
27.0055       	2.931500e+02
27.0147       	2.931500e+02
27.0238       	2.931500e+02
27.033        	2.931500e+02
27.0421       	2.931500e+02
27.0513       	2.931500e+02
27.0604       	2.931500e+02
27.0696       	2.931500e+02
27.0788       	2.931500e+02
27.0879       	2.931500e+02
27.0971       	2.931500e+02
27.1062       	2.931500e+02
27.1154       	2.931500e+02
27.1245       	2.931500e+02
27.1337       	2.931500e+02
27.1429       	2.931500e+02
27.152        	2.931500e+02
27.1612       	2.931500e+02
27.1703       	2.931500e+02
27.1795       	2.931500e+02
27.1886       	2.931500e+02
27.1978       	2.931500e+02
27.207        	2.931500e+02
27.2161       	2.931500e+02
27.2253       	2.931500e+02
27.2344       	2.931500e+02
27.2436       	2.931500e+02
27.2527       	2.931500e+02
27.2619       	2.931500e+02
27.2711       	2.931500e+02
27.2802       	2.931500e+02
27.2894       	2.931500e+02
27.2985       	2.931500e+02
27.3077       	2.931500e+02
27.3168       	2.931500e+02
27.326        	2.931500e+02
27.3352       	2.931500e+02
27.3443       	2.931500e+02
27.3535       	2.931500e+02
27.3626       	2.931500e+02
27.3718       	2.931500e+02
27.381        	2.931500e+02
27.3901       	2.931500e+02
27.3993       	2.931500e+02
27.4084       	2.931500e+02
27.4176       	2.931500e+02
27.4267       	2.931500e+02
27.4359       	2.931500e+02
27.4451       	2.931500e+02
27.4542       	2.931500e+02
27.4634       	2.931500e+02
27.4725       	2.931500e+02
27.4817       	2.931500e+02
27.4908       	2.931500e+02
27.5          	2.931500e+02
27.5092       	2.931500e+02
27.5183       	2.931500e+02
27.5275       	2.931500e+02
27.5366       	2.931500e+02
27.5458       	2.931500e+02
27.5549       	2.931500e+02
27.5641       	2.931500e+02
27.5733       	2.931500e+02
27.5824       	2.931500e+02
27.5916       	2.931500e+02
27.6007       	2.931500e+02
27.6099       	2.931500e+02
27.619        	2.931500e+02
27.6282       	2.931500e+02
27.6374       	2.931500e+02
27.6465       	2.931500e+02
27.6557       	2.931500e+02
27.6648       	2.931500e+02
27.674        	2.931500e+02
27.6832       	2.931500e+02
27.6923       	2.931500e+02
27.7015       	2.931500e+02
27.7106       	2.931500e+02
27.7198       	2.931500e+02
27.7289       	2.931500e+02
27.7381       	2.931500e+02
27.7473       	2.931500e+02
27.7564       	2.931500e+02
27.7656       	2.931500e+02
27.7747       	2.931500e+02
27.7839       	2.931500e+02
27.793        	2.931500e+02
27.8022       	2.931500e+02
27.8114       	2.931500e+02
27.8205       	2.931500e+02
27.8297       	2.931500e+02
27.8388       	2.931500e+02
27.848        	2.931500e+02
27.8571       	2.931500e+02
27.8663       	2.931500e+02
27.8755       	2.931500e+02
27.8846       	2.931500e+02
27.8938       	2.931500e+02
27.9029       	2.931500e+02
27.9121       	2.931500e+02
27.9212       	2.931500e+02
27.9304       	2.931500e+02
27.9396       	2.931500e+02
27.9487       	2.931500e+02
27.9579       	2.931500e+02
27.967        	2.931500e+02
27.9762       	2.931500e+02
27.9853       	2.931500e+02
27.9945       	2.931500e+02
28.0037       	2.931500e+02
28.0128       	2.931500e+02
28.022        	2.931500e+02
28.0311       	2.931500e+02
28.0403       	2.931500e+02
28.0495       	2.931500e+02
28.0586       	2.931500e+02
28.0678       	2.931500e+02
28.0769       	2.931500e+02
28.0861       	2.931500e+02
28.0952       	2.931500e+02
28.1044       	2.931500e+02
28.1136       	2.931500e+02
28.1227       	2.931500e+02
28.1319       	2.931500e+02
28.141        	2.931500e+02
28.1502       	2.931500e+02
28.1593       	2.931500e+02
28.1685       	2.931500e+02
28.1777       	2.931500e+02
28.1868       	2.931500e+02
28.196        	2.931500e+02
28.2051       	2.931500e+02
28.2143       	2.931500e+02
28.2234       	2.931500e+02
28.2326       	2.931500e+02
28.2418       	2.931500e+02
28.2509       	2.931500e+02
28.2601       	2.931500e+02
28.2692       	2.931500e+02
28.2784       	2.931500e+02
28.2875       	2.931500e+02
28.2967       	2.931500e+02
28.3059       	2.931500e+02
28.315        	2.931500e+02
28.3242       	2.931500e+02
28.3333       	2.931500e+02
28.3425       	2.931500e+02
28.3516       	2.931500e+02
28.3608       	2.931500e+02
28.37         	2.931500e+02
28.3791       	2.931500e+02
28.3883       	2.931500e+02
28.3974       	2.931500e+02
28.4066       	2.931500e+02
28.4158       	2.931500e+02
28.4249       	2.931500e+02
28.4341       	2.931500e+02
28.4432       	2.931500e+02
28.4524       	2.931500e+02
28.4615       	2.931500e+02
28.4707       	2.931500e+02
28.4799       	2.931500e+02
28.489        	2.931500e+02
28.4982       	2.931500e+02
28.5073       	2.931500e+02
28.5165       	2.931500e+02
28.5256       	2.931500e+02
28.5348       	2.931500e+02
28.544        	2.931500e+02
28.5531       	2.931500e+02
28.5623       	2.931500e+02
28.5714       	2.931500e+02
28.5806       	2.931500e+02
28.5897       	2.931500e+02
28.5989       	2.931500e+02
28.6081       	2.931500e+02
28.6172       	2.931500e+02
28.6264       	2.931500e+02
28.6355       	2.931500e+02
28.6447       	2.931500e+02
28.6538       	2.931500e+02
28.663        	2.931500e+02
28.6722       	2.931500e+02
28.6813       	2.931500e+02
28.6905       	2.931500e+02
28.6996       	2.931500e+02
28.7088       	2.931500e+02
28.7179       	2.931500e+02
28.7271       	2.931500e+02
28.7363       	2.931500e+02
28.7454       	2.931500e+02
28.7546       	2.931500e+02
28.7637       	2.931500e+02
28.7729       	2.931500e+02
28.7821       	2.931500e+02
28.7912       	2.931500e+02
28.8004       	2.931500e+02
28.8095       	2.931500e+02
28.8187       	2.931500e+02
28.8278       	2.931500e+02
28.837        	2.931500e+02
28.8462       	2.931500e+02
28.8553       	2.931500e+02
28.8645       	2.931500e+02
28.8736       	2.931500e+02
28.8828       	2.931500e+02
28.8919       	2.931500e+02
28.9011       	2.931500e+02
28.9103       	2.931500e+02
28.9194       	2.931500e+02
28.9286       	2.931500e+02
28.9377       	2.931500e+02
28.9469       	2.931500e+02
28.956        	2.931500e+02
28.9652       	2.931500e+02
28.9744       	2.931500e+02
28.9835       	2.931500e+02
28.9927       	2.931500e+02
29.0018       	2.931500e+02
29.011        	2.931500e+02
29.0201       	2.931500e+02
29.0293       	2.931500e+02
29.0385       	2.931500e+02
29.0476       	2.931500e+02
29.0568       	2.931500e+02
29.0659       	2.931500e+02
29.0751       	2.931500e+02
29.0842       	2.931500e+02
29.0934       	2.931500e+02
29.1026       	2.931500e+02
29.1117       	2.931500e+02
29.1209       	2.931500e+02
29.13         	2.931500e+02
29.1392       	2.931500e+02
29.1484       	2.931500e+02
29.1575       	2.931500e+02
29.1667       	2.931500e+02
29.1758       	2.931500e+02
29.185        	2.931500e+02
29.1941       	2.931500e+02
29.2033       	2.931500e+02
29.2125       	2.931500e+02
29.2216       	2.931500e+02
29.2308       	2.931500e+02
29.2399       	2.931500e+02
29.2491       	2.931500e+02
29.2582       	2.931500e+02
29.2674       	2.931500e+02
29.2766       	2.931500e+02
29.2857       	2.931500e+02
29.2949       	2.931500e+02
29.304        	2.931500e+02
29.3132       	2.931500e+02
29.3223       	2.931500e+02
29.3315       	2.931500e+02
29.3407       	2.931500e+02
29.3498       	2.931500e+02
29.359        	2.931500e+02
29.3681       	2.931500e+02
29.3773       	2.931500e+02
29.3864       	2.931500e+02
29.3956       	2.931500e+02
29.4048       	2.931500e+02
29.4139       	2.931500e+02
29.4231       	2.931500e+02
29.4322       	2.931500e+02
29.4414       	2.931500e+02
29.4505       	2.931500e+02
29.4597       	2.931500e+02
29.4689       	2.931500e+02
29.478        	2.931500e+02
29.4872       	2.931500e+02
29.4963       	2.931500e+02
29.5055       	2.931500e+02
29.5147       	2.931500e+02
29.5238       	2.931500e+02
29.533        	2.931500e+02
29.5421       	2.931500e+02
29.5513       	2.931500e+02
29.5604       	2.931500e+02
29.5696       	2.931500e+02
29.5788       	2.931500e+02
29.5879       	2.931500e+02
29.5971       	2.931500e+02
29.6062       	2.931500e+02
29.6154       	2.931500e+02
29.6245       	2.931500e+02
29.6337       	2.931500e+02
29.6429       	2.931500e+02
29.652        	2.931500e+02
29.6612       	2.931500e+02
29.6703       	2.931500e+02
29.6795       	2.931500e+02
29.6886       	2.931500e+02
29.6978       	2.931500e+02
29.707        	2.931500e+02
29.7161       	2.931500e+02
29.7253       	2.931500e+02
29.7344       	2.931500e+02
29.7436       	2.931500e+02
29.7527       	2.931500e+02
29.7619       	2.931500e+02
29.7711       	2.931500e+02
29.7802       	2.931500e+02
29.7894       	2.931500e+02
29.7985       	2.931500e+02
29.8077       	2.931500e+02
29.8168       	2.931500e+02
29.826        	2.931500e+02
29.8352       	2.931500e+02
29.8443       	2.931500e+02
29.8535       	2.931500e+02
29.8626       	2.931500e+02
29.8718       	2.931500e+02
29.881        	2.931500e+02
29.8901       	2.931500e+02
29.8993       	2.931500e+02
29.9084       	2.931500e+02
29.9176       	2.931500e+02
29.9267       	2.931500e+02
29.9359       	2.931500e+02
29.9451       	2.931500e+02
29.9542       	2.931500e+02
29.9634       	2.931500e+02
29.9725       	2.931500e+02
29.9817       	2.931500e+02
29.9908       	2.931500e+02
30            	2.931500e+02
